Part protocol
Network name;Part_Maxymos_1_MP-001_2017-02-22_16-05-48_Sila_bl_trans150obr_000037_OK.csv
Protocol version;3.01.00






Result information
Date;2017/02/22
Time;16:05:48
Cycle number;37
Total result;OK
Triggered switch signals
Part serial number;Sila_bl_trans150obr_000037
Measuring program name;BL_rans
Measuring program number;1
Zero X offset;0.00;mm
Tara Y offset;0.00;N









Process values - curve related
Block X;12.00;mm;XMIN-X;9.18;mm
Block Y;1375.12;N;XMIN-Y;0.00;N
Ref X;10.99;mm;XMAX-X;12.00;mm
Peak-peak X;2.82;mm;XMAX-Y;1375.12;N
Peak-peak Y;8181.87;N;YMIN-X;9.18;mm
;;;YMIN-Y;0.00;N
;;;YMAX-X;11.33;mm
;;;YMAX-Y;8181.87;N

Process values - EO related;Result;Entry;Exit;XMIN-X;XMIN-Y;XMAX-X;XMAX-Y;YMIN-Y;YMIN-X;YMAX-Y;YMAX-X;Calculated result;NOK cause;Violation X;Violation Y;Ref X;Ref Y;Switch force;Y-Diff;X-Diff;Force deviation ratio;Click ratio;Contact edge
;;;;mm;N;mm;N;N;mm;N;mm;-;-;-;-;-;-;-;-;-;-;-;-;
EO-01;OK;10.96;;;;;;;;;;;;;;;;
EO-02;OK;;;;;;;;;;;-0.3656;;;;;;
EO-03;OK;;;;;;;;;;;;;;;;;
EO-04;None;
EO-05;None;
EO-06;None;
EO-07;None;
EO-08;None;
EO-09;None;
EO-10;None;


















Evaluation objects settings;Reaction;X reference;Y-Reference;XMin;XMax;YMin;YMax;Entry;Exit;Curve part;Catch zone X;Catch zone Y;EO Name;EO description;Re-entry ignored;Generate statistics;X-Hysteresis;Y-Hysteresis;Down sampling rate;Calc limit min;Calc limit max;Grad limit min;Grad limit max;Hyst limit min;Hyst limit max;Speed limit min;Speed limit max;Time limit min;Time limit max;Is curve inside box;GetRef type;CalcInput1 | dx;CalcInput2 | dx;Calc operation;Average limit min;Average limit max;Break max bending;Visualization offset X;Visualization offset Y;-;-;-
EO-01;LINE-X;ABSOLUTE;ABSOLUTE;10.20;11.50;1000.00;;BELOW;NONE;ANY;+50%;+0%;;;FALSE;TRUE;0.0;0.0;1;;;;;;;;;;;;;;;;;;;0.00;0.00;;;
EO-02;CALC;ABSOLUTE;ABSOLUTE;9.94;;4671.78;;NONE;NONE;ANY;+0%;+0%;;;FALSE;TRUE;0.0;0.0;1;-0.410000;-0.310000;;;;;;;;;;;EO-01 | ENTRY;PV_TABLE_CURVE | YMAX-X;Subtraction;;;;0.00;0.00;;;
EO-03;NO-PASS;ABSOLUTE;ABSOLUTE;9.26;12.25;8743.21;;NONE;NONE;ANY;+0%;+0%;;;FALSE;TRUE;0.0;0.0;1;;;;;;;;;;;;;;;;;;;0.00;0.00;;;
EO-04;OFF
EO-05;OFF
EO-06;OFF
EO-07;OFF
EO-08;OFF
EO-09;OFF
EO-10;OFF



















Switch signal settings;Channel;Threshold at;;Trigger from;Reference;Latch until
Type S1;X;9.86;mm;LEFT;ABSOLUTE;None
Type S2;X;11.48;mm;LEFT;ABSOLUTE;None

















Device information
Device type;maXYmos TL
Device type number;5877A0
Device serial number;4915791
Firmware version;1.1.12 (r21150-TL_v1.1.x)
-
-
-
-
-
IP Address;192.168.21.10
Network name;Maxymos 1
Profibus address;10
-
-
-
Station name;Maxymos 1
Company name;ITW WIP PW
Comment;











Channel-X settings
Use the settings from global setup;True
Sensor-X type;Potentiometer
Unit;mm
Used range from;-5.00;mm
Used range to;25.00;mm
Decimal places;XXXX.XX
Scaling by;Teach-In
Point 1;15.00;mm;69.111;%
Point 2;13.221;mm;13.221;%
Invert signal;FALSE
Filter;OFF
Test point;0.00;mm
Tolerance;0.20;mm
Enable sensor test by dig-input;TRUE
Zoom from;0.00;mm
Zoom to;25.00;mm
Master Measurement Enable;FALSE
Master Measurement Nominal Position;0.00;mm
Encoder interpolation factor;-
Encoder electrical interface;-
Encoder referencing type;-
Encoder referencing edge;-
Encoder pulses per minute;-
Encoder use every nth-mark;-
Reference;-
Encoder reference points;-
Encoder coding;-
Encoder width;-
Encoder optimization;-
Encoder clock frequency;-
Termination resistor;-








Channel-Y settings
Use the settings from global setup;True
Sensor-Y type;Piezo
Unit;N
Used range from;0.00;N
Used range to;190000.00;N
Decimal places;XXXX.XX
Scaling by;Calibration Sheet
Sensitivity;-4.3000;pC/N
-
Invert signal;FALSE
Filter;500 Hz
Piezo reset;TRUE
Test point;0.00;N
Tolerance;0.00;N
Enable sensor test by dig-input;FALSE
Zoom from;0.00;N
Zoom to;1000.00;N












Cycle control settings
Use the settings from global setup;True
Measuring function;Y (X)
Delta-X;User-Defined;0.0100;mm
START condition;Threshold-X;9.00;mm;Trigger from;LEFT
STOP condition;Threshold-X;12.00;mm;Trigger from;LEFT
Cycle time out;1.00;s
Turning point RIGHT;YMAX
Turning point LEFT;NONE
Cut curve at;NONE










Evaluation settings
Capture only first NOK-EO for statistics;False
Hysteresis X;0.0;%
Hysteresis Y;0.0;%






Trigger Y settings
Threshold at;1607.52;N
Value X at TRIGGER Y;0.00;mm
Approach from;BELOW






Block settings
Value X at block;XMAX
Block at;0.00;mm







Measuring curve
Number of measuring points;224
Ref. Graph on;ABSOLUTE
Curve segments;0;172;171;224;


Time;X(ABSOLUTE);Y;X (ABSOLUTE)


s;mm;N;mm
0.0000;9.18322;0.00000;9.18322
0.0002;9.20589;0.14834;9.20589
0.0003;9.21858;0.48209;9.21858
0.0005;9.23212;1.66879;9.23212
0.0006;9.24365;4.00509;9.24365
0.0008;9.25652;7.26849;9.25652
0.0009;9.27142;9.64188;9.27142
0.0011;9.28291;15.20450;9.28291
0.0012;9.29374;16.87328;9.29374
0.0014;9.30513;19.61751;9.30513
0.0015;9.31728;21.58297;9.31728
0.0016;9.33122;23.02925;9.33122
0.0018;9.34357;26.77475;9.34357
0.0021;9.35564;36.08287;9.35564
0.0023;9.37095;42.01633;9.37095
0.0024;9.39227;46.20684;9.39227
0.0025;9.40532;52.47406;9.40532
0.0026;9.41848;58.48169;9.41848
0.0028;9.42917;65.26809;9.42917
0.0030;9.44427;68.93942;9.44427
0.0031;9.45698;70.57112;9.45698
0.0032;9.46764;71.53531;9.46764
0.0033;9.48190;72.12865;9.48190
0.0036;9.49427;72.90742;9.49427
0.0037;9.50541;74.65038;9.50541
0.0039;9.51958;77.13501;9.51958
0.0040;9.53388;79.36006;9.53388
0.0041;9.54623;81.84470;9.54623
0.0042;9.55870;84.47767;9.55870
0.0045;9.57139;93.08119;9.57139
0.0047;9.58550;98.60673;9.58550
0.0048;9.59850;100.94303;9.59850
0.0048;9.61361;102.72307;9.61361
0.0050;9.62490;104.13227;9.62490
0.0053;9.63807;103.65017;9.63807
0.0054;9.64811;103.83559;9.64811
0.0055;9.66018;104.68853;9.66018
0.0057;9.67171;107.24734;9.67171
0.0059;9.68355;112.88412;9.68355
0.0060;9.69685;117.92757;9.69685
0.0062;9.71628;124.86230;9.71628
0.0064;9.72716;131.83412;9.72716
0.0065;9.73865;136.98882;9.73865
0.0067;9.75311;141.47600;9.75311
0.0068;9.76697;144.96191;9.76697
0.0069;9.77861;145.85193;9.77861
0.0071;9.79040;148.18823;9.79040
0.0072;9.80316;149.44909;9.80316
0.0074;9.81672;153.19459;9.81672
0.0075;9.82947;155.64214;9.82947
0.0077;9.84065;162.16895;9.84065
0.0079;9.85156;168.06533;9.85156
0.0080;9.86590;174.85172;9.86590
0.0082;9.87757;186.31072;9.87757
0.0084;9.89088;205.29780;9.89088
0.0085;9.90169;213.97549;9.90169
0.0087;9.91343;214.19800;9.91343
0.0089;9.92693;206.41033;9.92693
0.0090;9.94108;203.33234;9.94108
0.0092;9.95258;201.36688;9.95258
0.0093;9.96503;202.51649;9.96503
0.0095;9.97633;207.18910;9.97633
0.0096;9.98740;209.71082;9.98740
0.0097;10.00064;211.37960;10.00064
0.0098;10.01230;215.19927;10.01230
0.0101;10.02737;223.72862;10.02737
0.0102;10.03742;227.21453;10.03742
0.0103;10.04851;230.32960;10.04851
0.0104;10.06157;232.51756;10.06157
0.0105;10.07265;233.51884;10.07265
0.0107;10.08918;233.07383;10.08918
0.0110;10.10001;234.44594;10.10001
0.0111;10.11418;235.26179;10.11418
0.0112;10.12700;236.26306;10.12700
0.0114;10.14135;239.67480;10.14135
0.0115;10.15490;242.38194;10.15490
0.0116;10.16875;248.09290;10.16875
0.0117;10.18191;252.83967;10.18191
0.0119;10.19551;260.10816;10.19551
0.0120;10.20560;266.00454;10.20560
0.0122;10.21833;275.75767;10.21833
0.0123;10.22954;282.28448;10.22954
0.0124;10.24018;289.07088;10.24018
0.0126;10.25502;296.26520;10.25502
0.0127;10.26874;297.71148;10.26874
0.0128;10.27920;295.67186;10.27920
0.0130;10.29049;291.96344;10.29049
0.0131;10.30230;290.10923;10.30230
0.0133;10.31259;294.63350;10.31259
0.0135;10.32591;301.56823;10.32591
0.0136;10.33895;307.42753;10.33895
0.0137;10.35224;310.13467;10.35224
0.0138;10.36643;312.39680;10.36643
0.0140;10.37919;317.44025;10.37919
0.0142;10.39060;321.48242;10.39060
0.0144;10.40153;330.23427;10.40153
0.0146;10.41259;346.84797;10.41259
0.0147;10.42491;350.44513;10.42491
0.0148;10.43928;355.56274;10.43928
0.0151;10.45200;376.25569;10.45200
0.0152;10.46872;386.37966;10.46872
0.0154;10.48210;407.88847;10.48210
0.0155;10.49669;426.28220;10.49669
0.0156;10.50721;444.82427;10.50721
0.0158;10.52018;462.03131;10.52018
0.0160;10.53343;484.94931;10.53343
0.0162;10.54521;505.60518;10.54521
0.0163;10.56224;519.25214;10.56224
0.0165;10.57372;533.19578;10.57372
0.0166;10.58602;547.25067;10.58602
0.0168;10.59612;565.68148;10.59612
0.0169;10.60690;580.03305;10.60690
0.0170;10.61802;589.82326;10.61802
0.0172;10.63284;604.69400;10.63284
0.0174;10.64655;625.27570;10.64655
0.0176;10.65747;646.63616;10.65747
0.0177;10.66809;656.57471;10.66809
0.0179;10.67843;673.41091;10.67843
0.0181;10.68934;690.09878;10.68934
0.0183;10.70294;701.74320;10.70294
0.0184;10.71647;707.67666;10.71647
0.0185;10.72707;716.72519;10.72707
0.0186;10.73890;722.88116;10.73890
0.0187;10.75273;729.25963;10.75273
0.0189;10.76410;739.38360;10.76410
0.0192;10.77756;762.19035;10.77756
0.0193;10.78758;774.02019;10.78758
0.0195;10.80033;789.03927;10.80033
0.0196;10.81176;798.97782;10.81176
0.0197;10.82370;804.91128;10.82370
0.0198;10.83631;810.32556;10.83631
0.0200;10.84675;817.33447;10.84675
0.0201;10.85694;823.23084;10.85694
0.0203;10.86919;828.90472;10.86919
0.0204;10.88149;832.87272;10.88149
0.0206;10.89172;846.81636;10.89172
0.0208;10.90273;857.60784;10.90273
0.0210;10.91785;870.73563;10.91785
0.0211;10.92913;881.63837;10.92913
0.0212;10.93930;889.94521;10.93930
0.0213;10.95516;935.00244;10.95516
0.0215;10.96754;1067.50408;10.96754
0.0217;10.97929;1298.68661;10.97929
0.0218;10.98944;1524.38070;10.98944
0.0220;11.00310;1857.02544;11.00310
0.0222;11.01545;2186.59220;11.01545
0.0224;11.02760;2417.10722;11.02760
0.0228;11.04030;2951.60094;11.04030
0.0229;11.05244;3131.86695;11.05244
0.0230;11.06311;3307.31202;11.06311
0.0233;11.07389;3593.86118;11.07389
0.0236;11.08483;3926.35758;11.08483
0.0237;11.09485;4086.41274;11.09485
0.0242;11.10669;4613.97172;11.10669
0.0248;11.11804;5305.70220;11.11804
0.0250;11.13301;5565.84745;11.13301
0.0251;11.14464;5701.53832;11.14464
0.0252;11.15519;5840.27009;11.15519
0.0253;11.16738;6124.63129;11.16738
0.0255;11.17933;6414.44385;11.17933
0.0258;11.19084;6844.13779;11.19084
0.0259;11.20296;6981.75704;11.20296
0.0261;11.21501;7179.26717;11.21501
0.0263;11.23153;7422.05704;11.23153
0.0264;11.24201;7533.34655;11.24201
0.0265;11.25495;7733.52674;11.25495
0.0267;11.26894;7861.91204;11.26894
0.0268;11.28035;7969.08520;11.28035
0.0270;11.29696;8076.36962;11.29696
0.0272;11.30973;8143.97401;11.30973
0.0274;11.32118;8176.83056;11.32118
0.0275;11.32685;8181.87400;11.32685
0.0276;11.33213;8180.01980;11.33213
0.0277;11.34656;8165.22322;11.34656
0.0278;11.35916;8147.79368;11.35916
0.0280;11.37088;8095.76463;11.37088
0.0284;11.38471;7924.10214;11.38471
0.0286;11.39553;7832.46723;11.39553
0.0287;11.40731;7721.54856;11.40731
0.0288;11.41816;7634.95709;11.41816
0.0289;11.43088;7534.01406;11.43088
0.0290;11.44650;7400.21448;11.44650
0.0291;11.45919;7057.70536;11.45919
0.0292;11.47151;6693.83577;11.47151
0.0293;11.49033;6221.45798;11.49033
0.0295;11.50285;5051.11958;11.50285
0.0296;11.52013;4395.10112;11.52013
0.0297;11.53050;4060.15716;11.53050
0.0297;11.54065;3727.54950;11.54065
0.0298;11.55788;3090.44396;11.55788
0.0299;11.57020;2528.17422;11.57020
0.0300;11.58209;2076.30396;11.58209
0.0301;11.59424;1611.26884;11.59424
0.0302;11.60942;1417.39295;11.60942
0.0303;11.62987;1291.60354;11.62987
0.0304;11.64597;1219.91990;11.64597
0.0305;11.65660;1199.30112;11.65660
0.0306;11.66763;1167.18625;11.66763
0.0308;11.68506;1120.57149;11.68506
0.0309;11.70431;1095.57677;11.70431
0.0310;11.71434;1086.82492;11.71434
0.0311;11.72744;1079.11142;11.72744
0.0312;11.73886;1080.48353;11.73886
0.0313;11.75332;1084.59987;11.75332
0.0314;11.76701;1082.78275;11.76701
0.0316;11.78406;1072.13960;11.78406
0.0317;11.79966;1050.63080;11.79966
0.0319;11.81284;1029.56700;11.81284
0.0320;11.82483;1024.04147;11.82483
0.0321;11.83499;1025.22816;11.83499
0.0324;11.84535;1010.35742;11.84535
0.0327;11.85862;1007.16818;11.85862
0.0331;11.87116;1067.91200;11.87116
0.0333;11.88167;1087.12159;11.88167
0.0335;11.89373;1115.08303;11.89373
0.0340;11.90647;1198.04026;11.90647
0.0342;11.91845;1218.06569;11.91845
0.0345;11.93013;1285.48466;11.93013
0.0348;11.94132;1326.87056;11.94132
0.0350;11.95230;1338.44081;11.95230
0.0351;11.96620;1349.67731;11.96620
0.0352;11.97937;1359.39335;11.97937
0.0354;11.99119;1372.81781;11.99119
0.0354;12.00188;1375.11703;12.00188
