Part protocol
Network name;Part_Maxymos_1_MP-001_2017-02-22_16-06-22_Sila_bl_trans150obr_000097_OK.csv
Protocol version;3.01.00






Result information
Date;2017/02/22
Time;16:06:22
Cycle number;97
Total result;OK
Triggered switch signals
Part serial number;Sila_bl_trans150obr_000097
Measuring program name;BL_rans
Measuring program number;1
Zero X offset;0.00;mm
Tara Y offset;0.00;N









Process values - curve related
Block X;12.01;mm;XMIN-X;9.23;mm
Block Y;1369.22;N;XMIN-Y;0.89;N
Ref X;10.99;mm;XMAX-X;12.01;mm
Peak-peak X;2.78;mm;XMAX-Y;1369.22;N
Peak-peak Y;8260.23;N;YMIN-X;9.23;mm
;;;YMIN-Y;0.89;N
;;;YMAX-X;11.33;mm
;;;YMAX-Y;8261.12;N

Process values - EO related;Result;Entry;Exit;XMIN-X;XMIN-Y;XMAX-X;XMAX-Y;YMIN-Y;YMIN-X;YMAX-Y;YMAX-X;Calculated result;NOK cause;Violation X;Violation Y;Ref X;Ref Y;Switch force;Y-Diff;X-Diff;Force deviation ratio;Click ratio;Contact edge
;;;;mm;N;mm;N;N;mm;N;mm;-;-;-;-;-;-;-;-;-;-;-;-;
EO-01;OK;10.96;;;;;;;;;;;;;;;;
EO-02;OK;;;;;;;;;;;-0.3738;;;;;;
EO-03;OK;;;;;;;;;;;;;;;;;
EO-04;None;
EO-05;None;
EO-06;None;
EO-07;None;
EO-08;None;
EO-09;None;
EO-10;None;


















Evaluation objects settings;Reaction;X reference;Y-Reference;XMin;XMax;YMin;YMax;Entry;Exit;Curve part;Catch zone X;Catch zone Y;EO Name;EO description;Re-entry ignored;Generate statistics;X-Hysteresis;Y-Hysteresis;Down sampling rate;Calc limit min;Calc limit max;Grad limit min;Grad limit max;Hyst limit min;Hyst limit max;Speed limit min;Speed limit max;Time limit min;Time limit max;Is curve inside box;GetRef type;CalcInput1 | dx;CalcInput2 | dx;Calc operation;Average limit min;Average limit max;Break max bending;Visualization offset X;Visualization offset Y;-;-;-
EO-01;LINE-X;ABSOLUTE;ABSOLUTE;10.20;11.50;1000.00;;BELOW;NONE;ANY;+50%;+0%;;;FALSE;TRUE;0.0;0.0;1;;;;;;;;;;;;;;;;;;;0.00;0.00;;;
EO-02;CALC;ABSOLUTE;ABSOLUTE;9.94;;4671.78;;NONE;NONE;ANY;+0%;+0%;;;FALSE;TRUE;0.0;0.0;1;-0.410000;-0.310000;;;;;;;;;;;EO-01 | ENTRY;PV_TABLE_CURVE | YMAX-X;Subtraction;;;;0.00;0.00;;;
EO-03;NO-PASS;ABSOLUTE;ABSOLUTE;9.26;12.25;8743.21;;NONE;NONE;ANY;+0%;+0%;;;FALSE;TRUE;0.0;0.0;1;;;;;;;;;;;;;;;;;;;0.00;0.00;;;
EO-04;OFF
EO-05;OFF
EO-06;OFF
EO-07;OFF
EO-08;OFF
EO-09;OFF
EO-10;OFF



















Switch signal settings;Channel;Threshold at;;Trigger from;Reference;Latch until
Type S1;X;9.86;mm;LEFT;ABSOLUTE;None
Type S2;X;11.48;mm;LEFT;ABSOLUTE;None

















Device information
Device type;maXYmos TL
Device type number;5877A0
Device serial number;4915791
Firmware version;1.1.12 (r21150-TL_v1.1.x)
-
-
-
-
-
IP Address;192.168.21.10
Network name;Maxymos 1
Profibus address;10
-
-
-
Station name;Maxymos 1
Company name;ITW WIP PW
Comment;











Channel-X settings
Use the settings from global setup;True
Sensor-X type;Potentiometer
Unit;mm
Used range from;-5.00;mm
Used range to;25.00;mm
Decimal places;XXXX.XX
Scaling by;Teach-In
Point 1;15.00;mm;69.111;%
Point 2;13.221;mm;13.221;%
Invert signal;FALSE
Filter;OFF
Test point;0.00;mm
Tolerance;0.20;mm
Enable sensor test by dig-input;TRUE
Zoom from;0.00;mm
Zoom to;25.00;mm
Master Measurement Enable;FALSE
Master Measurement Nominal Position;0.00;mm
Encoder interpolation factor;-
Encoder electrical interface;-
Encoder referencing type;-
Encoder referencing edge;-
Encoder pulses per minute;-
Encoder use every nth-mark;-
Reference;-
Encoder reference points;-
Encoder coding;-
Encoder width;-
Encoder optimization;-
Encoder clock frequency;-
Termination resistor;-








Channel-Y settings
Use the settings from global setup;True
Sensor-Y type;Piezo
Unit;N
Used range from;0.00;N
Used range to;190000.00;N
Decimal places;XXXX.XX
Scaling by;Calibration Sheet
Sensitivity;-4.3000;pC/N
-
Invert signal;FALSE
Filter;500 Hz
Piezo reset;TRUE
Test point;0.00;N
Tolerance;0.00;N
Enable sensor test by dig-input;FALSE
Zoom from;0.00;N
Zoom to;1000.00;N












Cycle control settings
Use the settings from global setup;True
Measuring function;Y (X)
Delta-X;User-Defined;0.0100;mm
START condition;Threshold-X;9.00;mm;Trigger from;LEFT
STOP condition;Threshold-X;12.00;mm;Trigger from;LEFT
Cycle time out;1.00;s
Turning point RIGHT;YMAX
Turning point LEFT;NONE
Cut curve at;NONE










Evaluation settings
Capture only first NOK-EO for statistics;False
Hysteresis X;0.0;%
Hysteresis Y;0.0;%






Trigger Y settings
Threshold at;1607.52;N
Value X at TRIGGER Y;0.00;mm
Approach from;BELOW






Block settings
Value X at block;XMAX
Block at;0.00;mm







Measuring curve
Number of measuring points;221
Ref. Graph on;ABSOLUTE
Curve segments;0;168;167;221;


Time;X(ABSOLUTE);Y;X (ABSOLUTE)


s;mm;N;mm
0.0000;9.22736;0.89002;9.22736
0.0002;9.24387;1.14961;9.24387
0.0003;9.25446;1.18669;9.25446
0.0005;9.27346;1.26086;9.27346
0.0008;9.28681;3.00382;9.28681
0.0009;9.29726;4.63552;9.29726
0.0010;9.31037;5.63679;9.31037
0.0012;9.32040;6.97182;9.32040
0.0012;9.33108;7.78767;9.33108
0.0014;9.34278;9.79021;9.34278
0.0016;9.35313;13.09070;9.35313
0.0018;9.36977;18.09706;9.36977
0.0019;9.38726;21.10088;9.38726
0.0020;9.39975;24.36428;9.39975
0.0021;9.41077;27.96144;9.41077
0.0023;9.42282;36.04578;9.42282
0.0024;9.43307;42.27592;9.43307
0.0026;9.44940;47.80146;9.44940
0.0027;9.46162;50.76819;9.46162
0.0028;9.47283;55.47787;9.47283
0.0029;9.48679;61.22592;9.48679
0.0032;9.49692;77.76544;9.49692
0.0034;9.50805;79.91632;9.50805
0.0035;9.52064;77.50585;9.52064
0.0036;9.53596;75.05830;9.53596
0.0037;9.55156;73.20409;9.55156
0.0038;9.56321;72.09157;9.56321
0.0041;9.57760;81.06593;9.57760
0.0043;9.59510;87.77816;9.59510
0.0044;9.60905;89.37278;9.60905
0.0046;9.62174;91.93159;9.62174
0.0048;9.63544;94.56456;9.63544
0.0050;9.64634;96.49293;9.64634
0.0051;9.66111;97.30879;9.66111
0.0053;9.67224;97.34587;9.67224
0.0054;9.68268;98.01338;9.68268
0.0056;9.69528;101.23970;9.69528
0.0058;9.71163;108.39694;9.71163
0.0060;9.72489;115.03501;9.72489
0.0061;9.73731;119.67052;9.73731
0.0062;9.75008;124.30604;9.75008
0.0064;9.76365;129.12698;9.76365
0.0065;9.78052;132.42747;9.78052
0.0067;9.79397;137.76758;9.79397
0.0068;9.80676;139.28803;9.80676
0.0071;9.82239;153.12042;9.82239
0.0072;9.83329;164.43108;9.83329
0.0074;9.84375;171.03206;9.84375
0.0075;9.85490;172.33000;9.85490
0.0076;9.86794;171.58832;9.86794
0.0078;9.87940;170.21621;9.87940
0.0080;9.89209;173.18294;9.89209
0.0082;9.90571;180.37726;9.90571
0.0083;9.91572;186.68157;9.91572
0.0085;9.92648;188.16493;9.92648
0.0086;9.94137;186.79282;9.94137
0.0088;9.95408;186.27364;9.95408
0.0089;9.96648;186.90407;9.96648
0.0091;9.97917;193.39379;9.97917
0.0092;9.99003;202.59066;9.99003
0.0093;10.00176;207.85661;10.00176
0.0095;10.01252;213.23381;10.01252
0.0096;10.02396;215.08802;10.02396
0.0098;10.04213;217.49849;10.04213
0.0099;10.05855;218.16600;10.05855
0.0101;10.07074;218.90768;10.07074
0.0103;10.08444;221.91150;10.08444
0.0106;10.09832;233.25925;10.09832
0.0107;10.10846;236.15181;10.10846
0.0108;10.11931;237.30142;10.11931
0.0109;10.12932;235.92930;10.12932
0.0110;10.14657;233.88968;10.14657
0.0111;10.15898;234.40885;10.15898
0.0113;10.17120;239.45230;10.17120
0.0114;10.18556;244.68116;10.18556
0.0115;10.19567;253.24760;10.19567
0.0117;10.20807;259.77441;10.20807
0.0119;10.22026;265.15161;10.22026
0.0120;10.23599;268.60043;10.23599
0.0121;10.24710;270.60298;10.24710
0.0122;10.25970;273.05053;10.25970
0.0124;10.27350;275.75767;10.27350
0.0125;10.28765;277.31521;10.28765
0.0127;10.30036;278.05689;10.30036
0.0130;10.31099;280.17068;10.31099
0.0131;10.32313;284.69495;10.32313
0.0132;10.33769;289.62714;10.33769
0.0133;10.35104;292.77929;10.35104
0.0134;10.36192;295.96853;10.36192
0.0136;10.37612;301.93908;10.37612
0.0138;10.38697;306.35209;10.38697
0.0140;10.40128;313.58350;10.40128
0.0143;10.41155;324.44915;10.41155
0.0144;10.42430;327.82381;10.42430
0.0144;10.43577;332.05140;10.43577
0.0146;10.45152;344.02957;10.45152
0.0148;10.46670;359.71617;10.46670
0.0149;10.47711;368.83887;10.47711
0.0151;10.48866;389.16097;10.48866
0.0152;10.50433;400.17496;10.50433
0.0154;10.51468;418.12369;10.51468
0.0155;10.52479;437.22202;10.52479
0.0157;10.53751;461.80881;10.53751
0.0159;10.55608;483.24344;10.55608
0.0160;10.56790;497.70625;10.56790
0.0161;10.58114;507.01437;10.58114
0.0163;10.59227;525.89020;10.59227
0.0166;10.60683;550.03198;10.60683
0.0167;10.61782;564.42062;10.61782
0.0168;10.63145;578.84636;10.63145
0.0169;10.64370;588.85907;10.64370
0.0172;10.65611;620.67727;10.65611
0.0173;10.66617;625.94321;10.66617
0.0175;10.67822;645.56072;10.67822
0.0177;10.68868;662.32276;10.68868
0.0179;10.69889;680.60524;10.69889
0.0180;10.71301;690.80338;10.71301
0.0182;10.73209;703.70866;10.73209
0.0183;10.74527;710.01296;10.74527
0.0184;10.75614;716.31727;10.75614
0.0186;10.76749;729.59339;10.76749
0.0188;10.78078;744.24162;10.78078
0.0191;10.79503;763.74788;10.79503
0.0192;10.80795;779.13780;10.80795
0.0194;10.81999;789.63261;10.81999
0.0195;10.83303;795.97400;10.83303
0.0196;10.84381;801.83329;10.84381
0.0198;10.85410;812.03143;10.85410
0.0199;10.86582;818.40991;10.86582
0.0200;10.87664;822.34082;10.87664
0.0202;10.88667;830.49934;10.88667
0.0204;10.89705;842.44043;10.89705
0.0206;10.90974;854.71528;10.90974
0.0208;10.92710;872.73817;10.92710
0.0209;10.93802;896.91703;10.93802
0.0210;10.94940;937.33874;10.94940
0.0211;10.96320;1038.43011;10.96320
0.0213;10.97384;1255.48359;10.97384
0.0215;10.98502;1545.88950;10.98502
0.0217;10.99895;1947.80742;10.99895
0.0218;11.00934;2105.74877;11.00934
0.0221;11.01948;2472.91885;11.01948
0.0223;11.03405;2792.17622;11.03405
0.0226;11.04780;3068.19348;11.04780
0.0228;11.05925;3326.52161;11.05925
0.0229;11.06967;3482.97960;11.06967
0.0233;11.08200;3853.04224;11.08200
0.0235;11.09410;4063.49474;11.09410
0.0240;11.10593;4605.29404;11.10593
0.0244;11.11677;5144.16369;11.11677
0.0246;11.12706;5408.23985;11.12706
0.0247;11.14235;5616.31897;11.14235
0.0249;11.15597;5831.33282;11.15597
0.0251;11.16894;6200.61669;11.16894
0.0253;11.17983;6499.84862;11.17983
0.0254;11.19027;6721.57470;11.19027
0.0256;11.20087;6936.25479;11.20087
0.0257;11.21616;7140.14340;11.21616
0.0259;11.22705;7390.86928;11.22705
0.0261;11.24033;7561.49341;11.24033
0.0262;11.25207;7716.28261;11.25207
0.0264;11.26857;7895.43610;11.26857
0.0266;11.27890;8038.80339;11.27890
0.0267;11.29235;8121.50102;11.29235
0.0269;11.30280;8183.83946;11.30280
0.0270;11.31588;8227.19082;11.31588
0.0272;11.32643;8257.26606;11.32643
0.0273;11.33174;8261.12281;11.33174
0.0274;11.33705;8258.08191;11.33705
0.0275;11.34902;8248.55129;11.34902
0.0276;11.35975;8222.77781;11.35975
0.0278;11.37214;8183.95071;11.37214
0.0281;11.38249;8038.80339;11.38249
0.0283;11.39324;7948.91143;11.39324
0.0284;11.40581;7839.29071;11.40581
0.0285;11.41594;7753.47801;11.41594
0.0286;11.42955;7655.01961;11.42955
0.0287;11.44098;7531.78901;11.44098
0.0288;11.45481;7348.66753;11.45481
0.0289;11.46693;7068.38559;11.46693
0.0290;11.48154;6673.03156;11.48154
0.0291;11.49288;5896.19298;11.49288
0.0292;11.50557;5294.72530;11.50557
0.0293;11.51607;4645.64158;11.51607
0.0294;11.53522;3973.34319;11.53522
0.0295;11.55256;3315.65595;11.55256
0.0296;11.56470;3006.44839;11.56470
0.0297;11.57550;2456.82433;11.57550
0.0298;11.59001;1845.23268;11.59001
0.0300;11.60485;1470.01534;11.60485
0.0300;11.62336;1317.97037;11.62336
0.0301;11.64391;1227.18839;11.64391
0.0302;11.65850;1182.83576;11.65850
0.0304;11.66913;1155.31933;11.66913
0.0306;11.68558;1108.51914;11.68558
0.0306;11.69740;1096.09595;11.69740
0.0307;11.71057;1086.00907;11.71057
0.0308;11.72510;1075.62551;11.72510
0.0309;11.73964;1077.55388;11.73964
0.0311;11.75359;1080.81729;11.75359
0.0312;11.76768;1077.85055;11.76768
0.0313;11.78246;1070.76748;11.78246
0.0315;11.79629;1039.80223;11.79629
0.0316;11.81355;1017.36632;11.81355
0.0318;11.82443;1012.76789;11.82443
0.0319;11.83471;1015.54920;11.83471
0.0323;11.84630;989.88697;11.84630
0.0326;11.85761;1019.51720;11.85761
0.0329;11.86945;1065.98363;11.86945
0.0331;11.88007;1085.00779;11.88007
0.0336;11.89101;1170.30132;11.89101
0.0337;11.90194;1193.55307;11.90194
0.0340;11.91523;1219.91990;11.91523
0.0342;11.92524;1270.72517;11.92524
0.0344;11.93525;1308.36557;11.93525
0.0347;11.94741;1328.76185;11.94741
0.0348;11.96388;1341.37046;11.96388
0.0349;11.97490;1350.19649;11.97490
0.0350;11.98491;1359.94961;11.98491
0.0351;11.99760;1367.51478;11.99760
0.0352;12.00937;1369.22065;12.00937
