Part protocol
Network name;Part_Maxymos_1_MP-001_2017-02-22_16-05-53_Sila_bl_trans150obr_000047_OK.csv
Protocol version;3.01.00






Result information
Date;2017/02/22
Time;16:05:53
Cycle number;47
Total result;OK
Triggered switch signals
Part serial number;Sila_bl_trans150obr_000047
Measuring program name;BL_rans
Measuring program number;1
Zero X offset;0.00;mm
Tara Y offset;0.00;N









Process values - curve related
Block X;12.00;mm;XMIN-X;9.23;mm
Block Y;1366.22;N;XMIN-Y;0.52;N
Ref X;11.00;mm;XMAX-X;12.00;mm
Peak-peak X;2.77;mm;XMAX-Y;1366.22;N
Peak-peak Y;8205.98;N;YMIN-X;9.23;mm
;;;YMIN-Y;0.52;N
;;;YMAX-X;11.33;mm
;;;YMAX-Y;8206.50;N

Process values - EO related;Result;Entry;Exit;XMIN-X;XMIN-Y;XMAX-X;XMAX-Y;YMIN-Y;YMIN-X;YMAX-Y;YMAX-X;Calculated result;NOK cause;Violation X;Violation Y;Ref X;Ref Y;Switch force;Y-Diff;X-Diff;Force deviation ratio;Click ratio;Contact edge
;;;;mm;N;mm;N;N;mm;N;mm;-;-;-;-;-;-;-;-;-;-;-;-;
EO-01;OK;10.96;;;;;;;;;;;;;;;;
EO-02;OK;;;;;;;;;;;-0.3614;;;;;;
EO-03;OK;;;;;;;;;;;;;;;;;
EO-04;None;
EO-05;None;
EO-06;None;
EO-07;None;
EO-08;None;
EO-09;None;
EO-10;None;


















Evaluation objects settings;Reaction;X reference;Y-Reference;XMin;XMax;YMin;YMax;Entry;Exit;Curve part;Catch zone X;Catch zone Y;EO Name;EO description;Re-entry ignored;Generate statistics;X-Hysteresis;Y-Hysteresis;Down sampling rate;Calc limit min;Calc limit max;Grad limit min;Grad limit max;Hyst limit min;Hyst limit max;Speed limit min;Speed limit max;Time limit min;Time limit max;Is curve inside box;GetRef type;CalcInput1 | dx;CalcInput2 | dx;Calc operation;Average limit min;Average limit max;Break max bending;Visualization offset X;Visualization offset Y;-;-;-
EO-01;LINE-X;ABSOLUTE;ABSOLUTE;10.20;11.50;1000.00;;BELOW;NONE;ANY;+50%;+0%;;;FALSE;TRUE;0.0;0.0;1;;;;;;;;;;;;;;;;;;;0.00;0.00;;;
EO-02;CALC;ABSOLUTE;ABSOLUTE;9.94;;4671.78;;NONE;NONE;ANY;+0%;+0%;;;FALSE;TRUE;0.0;0.0;1;-0.410000;-0.310000;;;;;;;;;;;EO-01 | ENTRY;PV_TABLE_CURVE | YMAX-X;Subtraction;;;;0.00;0.00;;;
EO-03;NO-PASS;ABSOLUTE;ABSOLUTE;9.26;12.25;8743.21;;NONE;NONE;ANY;+0%;+0%;;;FALSE;TRUE;0.0;0.0;1;;;;;;;;;;;;;;;;;;;0.00;0.00;;;
EO-04;OFF
EO-05;OFF
EO-06;OFF
EO-07;OFF
EO-08;OFF
EO-09;OFF
EO-10;OFF



















Switch signal settings;Channel;Threshold at;;Trigger from;Reference;Latch until
Type S1;X;9.86;mm;LEFT;ABSOLUTE;None
Type S2;X;11.48;mm;LEFT;ABSOLUTE;None

















Device information
Device type;maXYmos TL
Device type number;5877A0
Device serial number;4915791
Firmware version;1.1.12 (r21150-TL_v1.1.x)
-
-
-
-
-
IP Address;192.168.21.10
Network name;Maxymos 1
Profibus address;10
-
-
-
Station name;Maxymos 1
Company name;ITW WIP PW
Comment;











Channel-X settings
Use the settings from global setup;True
Sensor-X type;Potentiometer
Unit;mm
Used range from;-5.00;mm
Used range to;25.00;mm
Decimal places;XXXX.XX
Scaling by;Teach-In
Point 1;15.00;mm;69.111;%
Point 2;13.221;mm;13.221;%
Invert signal;FALSE
Filter;OFF
Test point;0.00;mm
Tolerance;0.20;mm
Enable sensor test by dig-input;TRUE
Zoom from;0.00;mm
Zoom to;25.00;mm
Master Measurement Enable;FALSE
Master Measurement Nominal Position;0.00;mm
Encoder interpolation factor;-
Encoder electrical interface;-
Encoder referencing type;-
Encoder referencing edge;-
Encoder pulses per minute;-
Encoder use every nth-mark;-
Reference;-
Encoder reference points;-
Encoder coding;-
Encoder width;-
Encoder optimization;-
Encoder clock frequency;-
Termination resistor;-








Channel-Y settings
Use the settings from global setup;True
Sensor-Y type;Piezo
Unit;N
Used range from;0.00;N
Used range to;190000.00;N
Decimal places;XXXX.XX
Scaling by;Calibration Sheet
Sensitivity;-4.3000;pC/N
-
Invert signal;FALSE
Filter;500 Hz
Piezo reset;TRUE
Test point;0.00;N
Tolerance;0.00;N
Enable sensor test by dig-input;FALSE
Zoom from;0.00;N
Zoom to;1000.00;N












Cycle control settings
Use the settings from global setup;True
Measuring function;Y (X)
Delta-X;User-Defined;0.0100;mm
START condition;Threshold-X;9.00;mm;Trigger from;LEFT
STOP condition;Threshold-X;12.00;mm;Trigger from;LEFT
Cycle time out;1.00;s
Turning point RIGHT;YMAX
Turning point LEFT;NONE
Cut curve at;NONE










Evaluation settings
Capture only first NOK-EO for statistics;False
Hysteresis X;0.0;%
Hysteresis Y;0.0;%






Trigger Y settings
Threshold at;1607.52;N
Value X at TRIGGER Y;0.00;mm
Approach from;BELOW






Block settings
Value X at block;XMAX
Block at;0.00;mm







Measuring curve
Number of measuring points;220
Ref. Graph on;ABSOLUTE
Curve segments;0;0;168;168;


Time;X(ABSOLUTE);Y;X (ABSOLUTE)


s;mm;N;mm
0.0000;9.22941;0.51918;9.22941
0.0002;9.25278;1.07544;9.25278
0.0004;9.26385;1.33503;9.26385
0.0005;9.27914;1.44628;9.27914
0.0008;9.29120;2.48464;9.29120
0.0009;9.30226;3.11507;9.30226
0.0010;9.31242;3.78258;9.31242
0.0011;9.32568;4.85802;9.32568
0.0012;9.33702;5.74804;9.33702
0.0014;9.34733;8.78894;9.34733
0.0017;9.36166;14.35156;9.36166
0.0018;9.37382;17.24413;9.37382
0.0018;9.38406;18.83874;9.38406
0.0019;9.40007;22.17632;9.40007
0.0020;9.41075;25.84765;9.41075
0.0022;9.42177;31.81819;9.42177
0.0024;9.43195;40.05087;9.43195
0.0025;9.44434;45.57641;9.44434
0.0025;9.45583;47.17103;9.45583
0.0027;9.46947;51.02778;9.46947
0.0028;9.48187;52.69656;9.48187
0.0030;9.49191;54.29118;9.49191
0.0032;9.50665;54.17993;9.50665
0.0034;9.52019;55.10703;9.52019
0.0035;9.53671;56.44206;9.53671
0.0036;9.54735;57.33208;9.54735
0.0037;9.56146;61.70801;9.56146
0.0040;9.57360;68.16065;9.57360
0.0041;9.58591;72.42533;9.58591
0.0042;9.59920;75.28081;9.59920
0.0043;9.61236;78.06212;9.61236
0.0045;9.62441;82.58638;9.62441
0.0048;9.63557;84.95977;9.63557
0.0048;9.64833;85.10810;9.64833
0.0050;9.65998;85.07102;9.65998
0.0052;9.67090;85.88687;9.67090
0.0053;9.68400;88.18609;9.68400
0.0056;9.69953;95.23207;9.69953
0.0057;9.70965;98.86632;9.70965
0.0058;9.72269;104.61436;9.72269
0.0060;9.73814;114.44166;9.73814
0.0061;9.74843;118.33549;9.74843
0.0062;9.76018;121.93266;9.76018
0.0064;9.77205;126.53109;9.77205
0.0065;9.78525;129.90575;9.78525
0.0067;9.79777;132.13079;9.79777
0.0069;9.80911;134.09625;9.80911
0.0070;9.81929;135.24586;9.81929
0.0071;9.83138;137.76758;9.83138
0.0073;9.84208;142.47727;9.84208
0.0074;9.85367;145.44400;9.85367
0.0075;9.86628;150.37619;9.86628
0.0077;9.87988;155.45672;9.87988
0.0078;9.89030;160.50016;9.89030
0.0080;9.90429;167.06405;9.90429
0.0083;9.91654;173.18294;9.91654
0.0084;9.93168;175.63049;9.93168
0.0086;9.94343;177.92971;9.94343
0.0087;9.95905;182.30564;9.95905
0.0088;9.96925;191.65084;9.96925
0.0090;9.97947;199.29017;9.97947
0.0091;9.99088;201.81189;9.99088
0.0093;10.00334;201.10730;10.00334
0.0094;10.01443;200.62520;10.01443
0.0096;10.02626;202.07148;10.02626
0.0097;10.03693;204.70446;10.03693
0.0098;10.04841;208.70954;10.04841
0.0099;10.06322;214.86551;10.06322
0.0101;10.07484;217.83224;10.07484
0.0103;10.08654;217.75808;10.08654
0.0105;10.09815;217.64682;10.09815
0.0106;10.10848;218.05475;10.10848
0.0107;10.12130;218.83352;10.12130
0.0108;10.13176;220.72481;10.13176
0.0109;10.14840;222.91277;10.14840
0.0110;10.15987;224.47030;10.15987
0.0111;10.17357;226.47285;10.17357
0.0113;10.18841;231.33087;10.18841
0.0115;10.20597;240.49065;10.20597
0.0117;10.21930;250.35504;10.21930
0.0119;10.23576;255.39848;10.23576
0.0120;10.24742;257.25269;10.24742
0.0121;10.26215;259.62607;10.26215
0.0122;10.27216;260.99818;10.27216
0.0123;10.28460;262.14779;10.28460
0.0125;10.29756;262.88947;10.29756
0.0127;10.30933;263.51991;10.30933
0.0130;10.32133;275.79476;10.32133
0.0131;10.33446;287.17959;10.33446
0.0132;10.34647;293.15013;10.34647
0.0133;10.36250;296.93272;10.36250
0.0135;10.37632;299.23193;10.37632
0.0136;10.38685;299.45444;10.38685
0.0138;10.39791;300.27029;10.39791
0.0141;10.41040;313.32391;10.41040
0.0142;10.42142;328.41715;10.42142
0.0143;10.43398;336.57566;10.43398
0.0144;10.44415;347.25590;10.44415
0.0146;10.45989;364.24043;10.45989
0.0147;10.47158;375.66235;10.47158
0.0149;10.48334;393.68524;10.48334
0.0150;10.49389;412.74649;10.49389
0.0152;10.50820;433.29110;10.50820
0.0153;10.52263;453.79863;10.52263
0.0155;10.53610;478.12583;10.53610
0.0157;10.54862;507.38522;10.54862
0.0158;10.56667;517.69461;10.56667
0.0160;10.57994;531.48991;10.57994
0.0162;10.59094;549.36446;10.59094
0.0164;10.60126;566.60859;10.60126
0.0165;10.61265;579.47679;10.61265
0.0167;10.62671;593.19792;10.62671
0.0168;10.64060;607.03030;10.64060
0.0170;10.65110;624.75652;10.65110
0.0171;10.66187;638.51474;10.66187
0.0173;10.67458;652.68088;10.67458
0.0175;10.68592;673.48508;10.68592
0.0178;10.69968;690.32128;10.69968
0.0179;10.71408;696.21766;10.71408
0.0180;10.72517;707.89917;10.72517
0.0181;10.74122;714.16639;10.74122
0.0182;10.75246;720.58194;10.75246
0.0184;10.76362;733.04221;10.76362
0.0186;10.77753;745.50248;10.77753
0.0188;10.78844;759.40904;10.78844
0.0191;10.80029;777.98819;10.80029
0.0192;10.81186;785.07126;10.81186
0.0193;10.83027;794.49063;10.83027
0.0194;10.84577;802.20414;10.84577
0.0196;10.85777;810.62224;10.85777
0.0198;10.87494;817.89073;10.87494
0.0200;10.88646;823.26793;10.88646
0.0203;10.89962;837.58241;10.89962
0.0205;10.91391;848.18847;10.91391
0.0206;10.92446;856.19864;10.92446
0.0207;10.94079;880.63709;10.94079
0.0208;10.95192;913.12280;10.95192
0.0210;10.96408;1000.45595;10.96408
0.0212;10.97479;1203.78830;10.97479
0.0214;10.98834;1575.11180;10.98834
0.0216;11.00341;1911.46496;11.00341
0.0217;11.01458;2158.18575;11.01458
0.0220;11.02696;2533.40308;11.02696
0.0222;11.03871;2859.81769;11.03871
0.0224;11.05131;3097.48995;11.05131
0.0226;11.06153;3269.93121;11.06153
0.0228;11.07290;3553.21696;11.07290
0.0231;11.08702;3937.40866;11.08702
0.0233;11.09744;4147.86116;11.09744
0.0240;11.10953;4892.17695;11.10953
0.0244;11.12021;5369.15317;11.12021
0.0246;11.13426;5632.04264;11.13426
0.0247;11.14530;5768.43811;11.14530
0.0249;11.15690;6047.71878;11.15690
0.0251;11.16788;6331.63496;11.16788
0.0252;11.17856;6473.81556;11.17856
0.0254;11.18984;6823.22233;11.18984
0.0256;11.20599;7088.48519;11.20599
0.0258;11.22052;7333.79678;11.22052
0.0259;11.23288;7502.38129;11.23288
0.0261;11.24319;7656.39173;11.24319
0.0262;11.25369;7750.17752;11.25369
0.0263;11.26537;7875.92984;11.26537
0.0265;11.27761;8012.65907;11.27761
0.0266;11.29042;8090.79535;11.29042
0.0268;11.30171;8147.86785;11.30171
0.0269;11.31246;8184.98907;11.31246
0.0271;11.32669;8205.94161;11.32669
0.0272;11.32545;8206.49787;11.32545
0.0273;11.33954;8198.00560;11.33954
0.0275;11.35069;8176.08888;11.35069
0.0276;11.36606;8129.02910;11.36606
0.0280;11.37904;7996.37913;11.37904
0.0281;11.39285;7916.42572;11.39285
0.0284;11.40856;7744.65198;11.40856
0.0285;11.41975;7659.54388;11.41975
0.0286;11.43008;7560.38089;11.43008
0.0287;11.44601;7430.10430;11.44601
0.0288;11.46074;7095.56826;11.46074
0.0289;11.47547;6736.40836;11.47547
0.0290;11.49239;6265.32852;11.49239
0.0292;11.50754;5087.79579;11.50754
0.0293;11.52191;4429.29270;11.52191
0.0294;11.54049;3760.33189;11.54049
0.0295;11.55922;3121.18672;11.55922
0.0296;11.57179;2554.02187;11.57179
0.0297;11.58328;2094.28977;11.58328
0.0298;11.59522;1616.86854;11.59522
0.0299;11.60938;1416.79960;11.60938
0.0300;11.62564;1286.30051;11.62564
0.0300;11.63697;1242.54122;11.63697
0.0301;11.64830;1210.53761;11.64830
0.0301;11.65856;1188.17587;11.65856
0.0303;11.67191;1153.50220;11.67191
0.0305;11.68454;1108.63039;11.68454
0.0306;11.70570;1083.85819;11.70570
0.0306;11.71617;1074.77257;11.71617
0.0307;11.73388;1065.79821;11.73388
0.0308;11.74424;1066.16905;11.74424
0.0310;11.75704;1069.72913;11.75704
0.0311;11.76743;1067.24449;11.76743
0.0312;11.78012;1060.79185;11.78012
0.0313;11.79754;1049.40702;11.79754
0.0315;11.81078;1017.84841;11.81078
0.0317;11.82707;1004.23854;11.82707
0.0318;11.83740;1007.31652;11.83740
0.0323;11.84846;985.25145;11.84846
0.0326;11.85996;1020.11055;11.85996
0.0328;11.87086;1058.38138;11.87086
0.0330;11.88289;1079.11142;11.88289
0.0335;11.89430;1160.58527;11.89430
0.0336;11.90669;1184.39329;11.90669
0.0341;11.91871;1250.55140;11.91871
0.0343;11.92887;1293.34650;11.92887
0.0345;11.93887;1317.08035;11.93887
0.0347;11.94956;1329.98563;11.94956
0.0348;11.96356;1341.40754;11.96356
0.0349;11.97934;1355.87036;11.97934
0.0350;11.99125;1363.95470;11.99125
0.0351;12.00098;1366.21683;12.00098
