Part protocol
Network name;Part_Maxymos_1_MP-001_2017-03-14_14-22-04_Sila_bl_trans150obr_tepy_021_OK.csv
Protocol version;3.01.00






Result information
Date;2017/03/14
Time;14:22:04
Cycle number;21
Total result;OK
Triggered switch signals
Part serial number;Sila_bl_trans150obr_tepy_021
Measuring program name;BL_rans
Measuring program number;1
Zero X offset;0.000;mm
Tara Y offset;0;N









Process values - curve related
Block X;10.503;mm;XMIN-X;8.199;mm
Block Y;1104;N;XMIN-Y;0;N
Ref X;9.171;mm;XMAX-X;10.503;mm
Peak-peak X;2.304;mm;XMAX-Y;1104;N
Peak-peak Y;8295;N;YMIN-X;8.316;mm
;;;YMIN-Y;-24;N
;;;YMAX-X;9.445;mm
;;;YMAX-Y;8271;N

Process values - EO related;Result;Entry;Exit;XMIN-X;XMIN-Y;XMAX-X;XMAX-Y;YMIN-Y;YMIN-X;YMAX-Y;YMAX-X;Calculated result;NOK cause;Violation X;Violation Y;Ref X;Ref Y;Switch force;Y-Diff;X-Diff;Force deviation ratio;Click ratio;Contact edge
;;;;mm;N;mm;N;N;mm;N;mm;-;-;-;-;-;-;-;-;-;-;-;-;
EO-01;OK;9.150;;;;;;;;;;;;;;;;
EO-02;OK;;;;;;;;;;;-0.2946;;;;;;
EO-03;OK;;;;;;;;;;;;;;;;;
EO-04;None;
EO-05;None;
EO-06;None;
EO-07;None;
EO-08;None;
EO-09;None;
EO-10;None;


















Evaluation objects settings;Reaction;X reference;Y-Reference;XMin;XMax;YMin;YMax;Entry;Exit;Curve part;Catch zone X;Catch zone Y;EO Name;EO description;Re-entry ignored;Generate statistics;X-Hysteresis;Y-Hysteresis;Down sampling rate;Calc limit min;Calc limit max;Grad limit min;Grad limit max;Hyst limit min;Hyst limit max;Speed limit min;Speed limit max;Time limit min;Time limit max;Is curve inside box;GetRef type;CalcInput1 | dx;CalcInput2 | dx;Calc operation;Average limit min;Average limit max;Break max bending;Visualization offset X;Visualization offset Y;-;-;-
EO-01;LINE-X;ABSOLUTE;ABSOLUTE;8.689;9.496;1000;;BELOW;NONE;ANY;+50%;+0%;;;FALSE;TRUE;0.0;0.0;1;;;;;;;;;;;;;;;;;;;0.000;0;;;
EO-02;CALC;ABSOLUTE;ABSOLUTE;7.603;;4166;;NONE;NONE;ANY;+0%;+0%;;;FALSE;TRUE;0.0;0.0;1;-0.360000;-0.280000;;;;;;;;;;;EO-01 | ENTRY;PV_TABLE_CURVE | YMAX-X;Subtraction;;;;0.000;0;;;
EO-03;NO-PASS;ABSOLUTE;ABSOLUTE;7.653;12.250;8743;;NONE;NONE;ANY;+0%;+0%;;;FALSE;TRUE;0.0;0.0;1;;;;;;;;;;;;;;;;;;;0.000;0;;;
EO-04;OFF
EO-05;OFF
EO-06;OFF
EO-07;OFF
EO-08;OFF
EO-09;OFF
EO-10;OFF



















Switch signal settings;Channel;Threshold at;;Trigger from;Reference;Latch until
Type S1;X;9.860;mm;LEFT;ABSOLUTE;None
Type S2;X;11.480;mm;LEFT;ABSOLUTE;None

















Device information
Device type;maXYmos TL
Device type number;5877A0
Device serial number;4915791
Firmware version;1.1.12 (r21150-TL_v1.1.x)
-
-
-
-
-
IP Address;192.168.21.10
Network name;Maxymos 1
Profibus address;10
-
-
-
Station name;Maxymos 1
Company name;ITW WIP PW
Comment;











Channel-X settings
Use the settings from global setup;True
Sensor-X type;Potentiometer
Unit;mm
Used range from;8.000;mm
Used range to;12.000;mm
Decimal places;XXX.XXX
Scaling by;Teach-In
Point 1;-0.380;mm;16.488;%
Point 2;72.105;mm;72.105;%
Invert signal;FALSE
Filter;OFF
Test point;0.000;mm
Tolerance;0.010;mm
Enable sensor test by dig-input;FALSE
Zoom from;0.000;mm
Zoom to;25.000;mm
Master Measurement Enable;FALSE
Master Measurement Nominal Position;0.000;mm
Encoder interpolation factor;-
Encoder electrical interface;-
Encoder referencing type;-
Encoder referencing edge;-
Encoder pulses per minute;-
Encoder use every nth-mark;-
Reference;-
Encoder reference points;-
Encoder coding;-
Encoder width;-
Encoder optimization;-
Encoder clock frequency;-
Termination resistor;-








Channel-Y settings
Use the settings from global setup;True
Sensor-Y type;Piezo
Unit;N
Used range from;0;N
Used range to;190000;N
Decimal places;XXXXXX
Scaling by;Calibration Sheet
Sensitivity;-4.3000;pC/N
-
Invert signal;FALSE
Filter;OFF
Piezo reset;TRUE
Test point;0;N
Tolerance;0;N
Enable sensor test by dig-input;FALSE
Zoom from;0;N
Zoom to;1000;N












Cycle control settings
Use the settings from global setup;True
Measuring function;Y (X)
Delta-X;User-Defined;0.00100;mm
START condition;Threshold-X;8.000;mm;Trigger from;LEFT
STOP condition;Threshold-X;10.500;mm;Trigger from;LEFT
Cycle time out;0.25;s
Turning point RIGHT;NONE
Turning point LEFT;NONE
Cut curve at;NONE










Evaluation settings
Capture only first NOK-EO for statistics;False
Hysteresis X;0.0;%
Hysteresis Y;0.0;%






Trigger Y settings
Threshold at;1608;N
Value X at TRIGGER Y;0.000;mm
Approach from;BELOW






Block settings
Value X at block;XMAX
Block at;0.000;mm







Measuring curve
Number of measuring points;630
Ref. Graph on;ABSOLUTE
Curve segments;0;630;


Time;X(ABSOLUTE);Y;X (ABSOLUTE)


s;mm;N;mm
0.0000;8.19880;-0.07417;8.19880
0.0000;8.20087;2.44755;8.20087
0.0002;8.21406;1.52045;8.21406
0.0002;8.21805;0.11125;8.21805
0.0003;8.22056;3.11507;8.22056
0.0003;8.22470;3.93092;8.22470
0.0004;8.22710;6.48972;8.22710
0.0004;8.23510;7.30558;8.23510
0.0005;8.24180;9.97563;8.24180
0.0005;8.25007;13.64696;8.25007
0.0006;8.25387;11.19941;8.25387
0.0006;8.25750;12.38610;8.25750
0.0007;8.25830;18.46790;8.25830
0.0007;8.26288;16.05743;8.26288
0.0008;8.26790;12.94237;8.26790
0.0008;8.27221;16.91037;8.27221
0.0009;8.27686;16.61370;8.27686
0.0010;8.27843;18.95000;8.27843
0.0010;8.28012;41.38590;8.28012
0.0011;8.28035;277.42646;8.28035
0.0011;8.28374;327.49005;8.28374
0.0012;8.28692;62.15302;8.28692
0.0012;8.28918;78.76672;8.28918
0.0012;8.29120;162.68813;8.29120
0.0013;8.29514;44.24138;8.29514
0.0013;8.30167;49.13649;8.30167
0.0014;8.31092;5.78513;8.31092
0.0014;8.31620;-23.51135;8.31620
0.0015;8.32676;49.17357;8.32676
0.0015;8.33423;44.79764;8.33423
0.0016;8.33417;85.55311;8.33417
0.0016;8.33888;133.98500;8.33888
0.0017;8.34307;72.16574;8.34307
0.0017;8.34964;96.19626;8.34964
0.0018;8.35455;41.75674;8.35455
0.0019;8.35758;84.25517;8.35758
0.0019;8.36284;30.77984;8.36284
0.0020;8.36527;45.24265;8.36527
0.0020;8.36901;101.23970;8.36901
0.0021;8.37427;66.45478;8.37427
0.0021;8.37677;117.07463;8.37677
0.0022;8.38336;81.65928;8.38336
0.0022;8.38611;50.17484;8.38611
0.0023;8.39610;94.60164;8.39610
0.0023;8.39774;61.96760;8.39774
0.0024;8.40183;482.90968;8.40183
0.0024;8.40496;574.24792;8.40496
0.0024;8.40724;95.08374;8.40724
0.0025;8.41166;171.66249;8.41166
0.0025;8.41624;303.68203;8.41624
0.0026;8.42045;86.14646;8.42045
0.0026;8.42164;140.17805;8.42164
0.0027;8.42598;37.60332;8.42598
0.0027;8.43076;-15.05616;8.43076
0.0028;8.43294;101.75888;8.43294
0.0028;8.43730;72.27699;8.43730
0.0029;8.44326;156.97717;8.44326
0.0029;8.44810;224.76698;8.44810
0.0030;8.44871;111.06700;8.44871
0.0030;8.45319;224.76698;8.45319
0.0031;8.45558;654.98010;8.45558
0.0031;8.46004;459.91752;8.46004
0.0032;8.46009;166.09987;8.46009
0.0032;8.46273;186.97824;8.46273
0.0033;8.46460;242.23361;8.46460
0.0033;8.46997;142.66269;8.46997
0.0034;8.47667;104.65145;8.47667
0.0034;8.48273;98.34714;8.48273
0.0035;8.48771;58.74128;8.48771
0.0035;8.48900;109.58364;8.48900
0.0036;8.49509;164.17149;8.49509
0.0036;8.49919;412.82066;8.49919
0.0036;8.50278;724.40161;8.50278
0.0037;8.50822;239.71189;8.50822
0.0037;8.50969;182.45397;8.50969
0.0038;8.51364;357.00902;8.51364
0.0038;8.51717;87.14773;8.51717
0.0039;8.52367;150.93245;8.52367
0.0039;8.52656;62.59803;8.52656
0.0040;8.53391;18.61624;8.53391
0.0040;8.53943;429.43435;8.53943
0.0041;8.54528;578.47551;8.54528
0.0041;8.54909;304.20121;8.54909
0.0042;8.55482;303.05160;8.55482
0.0042;8.56214;319.59113;8.56214
0.0043;8.56594;177.03969;8.56594
0.0043;8.57021;168.76993;8.57021
0.0044;8.57144;134.57835;8.57144
0.0044;8.57526;447.75392;8.57526
0.0045;8.57808;297.67440;8.57808
0.0045;8.58038;116.07336;8.58038
0.0046;8.58383;383.74669;8.58383
0.0046;8.58510;328.19465;8.58510
0.0047;8.58656;356.23026;8.58656
0.0047;8.59201;579.81054;8.59201
0.0048;8.59696;257.28977;8.59696
0.0048;8.59899;134.39293;8.59899
0.0048;8.59908;224.76698;8.59908
0.0049;8.60211;190.98333;8.60211
0.0049;8.60462;358.30697;8.60462
0.0050;8.60923;535.27249;8.60923
0.0050;8.61522;241.00983;8.61522
0.0051;8.62053;260.73859;8.62053
0.0051;8.62902;312.76764;8.62902
0.0052;8.63319;314.43643;8.63319
0.0052;8.63545;544.76603;8.63545
0.0053;8.63763;252.72842;8.63763
0.0053;8.64285;126.38275;8.64285
0.0054;8.64431;319.66529;8.64431
0.0054;8.64711;380.92830;8.64711
0.0055;8.64761;474.49158;8.64761
0.0055;8.65382;271.15924;8.65382
0.0056;8.65755;167.28656;8.65755
0.0056;8.65951;396.39238;8.65951
0.0057;8.66475;433.10568;8.66475
0.0057;8.67017;329.90052;8.67017
0.0058;8.67258;287.43918;8.67258
0.0058;8.67654;295.82019;8.67654
0.0059;8.67903;400.91665;8.67903
0.0059;8.68318;332.31099;8.68318
0.0060;8.68851;235.55846;8.68851
0.0060;8.69303;373.54855;8.69303
0.0060;8.69734;403.32712;8.69734
0.0061;8.69864;318.47860;8.69864
0.0061;8.70393;321.85326;8.70393
0.0062;8.70564;336.87234;8.70564
0.0062;8.70665;469.70773;8.70665
0.0063;8.70903;367.35550;8.70903
0.0063;8.71489;244.97783;8.71489
0.0064;8.71986;362.05247;8.71986
0.0064;8.72802;353.22644;8.72802
0.0065;8.73378;336.31607;8.73378
0.0065;8.73980;347.77507;8.73980
0.0066;8.74378;371.13808;8.74378
0.0066;8.74731;434.03278;8.74731
0.0067;8.74981;338.87488;8.74981
0.0067;8.75112;336.50149;8.75112
0.0068;8.75316;412.52398;8.75316
0.0068;8.75396;360.30951;8.75396
0.0069;8.75744;327.37880;8.75744
0.0069;8.76141;345.06793;8.76141
0.0070;8.76590;368.02301;8.76590
0.0070;8.77136;393.24023;8.77136
0.0071;8.77661;389.68015;8.77661
0.0071;8.78267;394.98318;8.78267
0.0072;8.78571;400.21205;8.78571
0.0072;8.78971;350.44513;8.78971
0.0072;8.79581;364.94503;8.79581
0.0073;8.79654;386.37966;8.79654
0.0073;8.79870;367.80051;8.79870
0.0074;8.80367;381.81831;8.80367
0.0074;8.80771;375.29151;8.80771
0.0075;8.81167;396.46655;8.81167
0.0075;8.81254;411.48563;8.81254
0.0076;8.81633;386.78759;8.81633
0.0076;8.82534;417.01116;8.82534
0.0077;8.83245;397.61616;8.83245
0.0077;8.83638;369.02429;8.83638
0.0078;8.84243;390.68142;8.84243
0.0078;8.84804;392.79522;8.84804
0.0079;8.85175;420.57124;8.85175
0.0079;8.85699;414.00735;8.85699
0.0080;8.86086;412.78357;8.86086
0.0080;8.86368;433.95862;8.86368
0.0081;8.86619;426.94971;8.86619
0.0081;8.87141;439.11331;8.87141
0.0082;8.87569;434.06987;8.87569
0.0082;8.87829;427.61723;8.87829
0.0083;8.88203;439.44707;8.88203
0.0083;8.88421;443.08132;8.88421
0.0084;8.88805;448.68102;8.88805
0.0084;8.88987;472.19237;8.88987
0.0084;8.89481;466.48141;8.89481
0.0085;8.90037;463.03258;8.90037
0.0085;8.90395;470.85734;8.90395
0.0086;8.90814;464.55303;8.90814
0.0086;8.90998;482.05675;8.90998
0.0087;8.91609;485.91350;8.91609
0.0087;8.92181;491.32778;8.92181
0.0088;8.92751;489.10273;8.92751
0.0088;8.93009;489.84442;8.93009
0.0089;8.93232;509.05400;8.93232
0.0089;8.93664;511.05655;8.93664
0.0090;8.94234;506.12435;8.94234
0.0090;8.94918;514.20870;8.94918
0.0091;8.95569;517.73169;8.95569
0.0091;8.96300;523.81349;8.96300
0.0092;8.96812;521.44010;8.96812
0.0092;8.97313;532.97327;8.97313
0.0093;8.97607;543.46808;8.97607
0.0093;8.97748;536.05126;8.97748
0.0094;8.97883;541.35429;8.97883
0.0094;8.98346;551.10742;8.98346
0.0095;8.98785;560.30428;8.98785
0.0095;8.99020;571.76328;8.99020
0.0096;8.99390;570.98452;8.99390
0.0096;8.99637;569.38990;8.99637
0.0096;9.00055;572.17121;9.00055
0.0097;9.00233;578.58677;9.00233
0.0097;9.00842;584.18647;9.00842
0.0098;9.01468;583.29645;9.01468
0.0098;9.02018;594.19919;9.02018
0.0099;9.02491;614.22463;9.02491
0.0099;9.02948;619.82433;9.02948
0.0100;9.03563;633.61963;9.03563
0.0100;9.03906;647.41493;9.03906
0.0101;9.04311;650.82667;9.04311
0.0101;9.05088;654.60925;9.05088
0.0102;9.05552;655.98137;9.05552
0.0102;9.05973;661.32148;9.05973
0.0103;9.06136;668.96082;9.06136
0.0103;9.06349;680.16023;9.06349
0.0104;9.06755;688.20749;9.06755
0.0104;9.07183;698.14604;9.07183
0.0105;9.07538;706.04496;9.07538
0.0105;9.07990;717.83772;9.07990
0.0106;9.08258;718.20856;9.08258
0.0106;9.08449;722.84407;9.08449
0.0107;9.08878;727.96169;9.08878
0.0107;9.09089;733.89515;9.09089
0.0108;9.09246;746.98585;9.09246
0.0108;9.09230;755.10728;9.09230
0.0108;9.09603;767.27087;9.09603
0.0109;9.09980;777.35776;9.09980
0.0109;9.10575;787.29631;9.10575
0.0110;9.10936;802.38956;9.10936
0.0110;9.11466;811.17850;9.11466
0.0111;9.12128;826.90217;9.12128
0.0111;9.12563;840.69747;9.12563
0.0112;9.12978;852.08231;9.12978
0.0112;9.13238;874.44404;9.13238
0.0113;9.13727;897.47329;9.13727
0.0113;9.14410;920.53963;9.14410
0.0114;9.14696;942.19677;9.14696
0.0114;9.14906;977.64921;9.14906
0.0115;9.15226;1036.09381;9.15226
0.0115;9.15484;1124.05739;9.15484
0.0116;9.15437;1221.21784;9.15437
0.0116;9.15516;1328.57643;9.15516
0.0117;9.15819;1451.25077;9.15819
0.0117;9.16599;1571.51464;9.16599
0.0118;9.17125;1674.20062;9.17125
0.0118;9.17356;1779.22291;9.17356
0.0119;9.17731;1875.56751;9.17731
0.0119;9.17894;1967.05408;9.17894
0.0120;9.18107;2055.05475;9.18107
0.0120;9.18224;2140.05160;9.18224
0.0120;9.18435;2227.16225;9.18435
0.0121;9.18714;2314.53248;9.18714
0.0121;9.18828;2394.37464;9.18828
0.0122;9.19119;2478.48147;9.19119
0.0122;9.19277;2563.96042;9.19277
0.0123;9.19478;2646.13887;9.19478
0.0123;9.19998;2723.83015;9.19998
0.0124;9.20248;2796.88591;9.20248
0.0124;9.20476;2879.84313;9.20476
0.0125;9.20874;2964.32080;9.20874
0.0125;9.21106;3048.76139;9.21106
0.0126;9.21228;3139.46920;9.21228
0.0126;9.21600;3227.87779;9.21600
0.0127;9.21738;3316.99098;9.21738
0.0127;9.22226;3405.77041;9.22226
0.0128;9.22308;3495.14319;9.22308
0.0128;9.22573;3580.54797;9.22573
0.0129;9.22540;3663.87603;9.22540
0.0129;9.22859;3742.16066;9.22859
0.0130;9.22972;3822.37365;9.22972
0.0130;9.23335;3895.72608;9.23335
0.0131;9.23493;3969.04143;9.23493
0.0131;9.23675;4040.87341;9.23675
0.0132;9.23873;4103.06352;9.23873
0.0132;9.23790;4168.33160;9.23790
0.0132;9.23860;4231.59715;9.23860
0.0133;9.23894;4292.30389;9.23894
0.0133;9.24265;4348.48636;9.24265
0.0134;9.24073;4401.55377;9.24073
0.0134;9.23975;4455.91912;9.23975
0.0135;9.24114;4506.87273;9.24114
0.0135;9.24281;4555.60129;9.24281
0.0136;9.24255;4597.95138;9.24255
0.0136;9.24544;4644.67739;9.24544
0.0137;9.24708;4682.31780;9.24708
0.0137;9.24682;4726.00291;9.24682
0.0138;9.24810;4768.53842;9.24810
0.0138;9.24919;4812.14937;9.24919
0.0139;9.25091;4854.57363;9.25091
0.0139;9.25112;4898.25875;9.25112
0.0140;9.25128;4939.79299;9.25128
0.0140;9.25587;4977.76715;9.25587
0.0141;9.25771;5013.62751;9.25771
0.0141;9.25762;5050.82290;9.25762
0.0142;9.26089;5086.90577;9.26089
0.0142;9.26145;5120.39275;9.26145
0.0143;9.26150;5156.32728;9.26150
0.0143;9.26279;5197.78735;9.26279
0.0144;9.26596;5238.17198;9.26596
0.0144;9.26273;5275.47863;9.26273
0.0144;9.26455;5314.08322;9.26455
0.0145;9.26836;5354.98703;9.26836
0.0145;9.26740;5395.48291;9.26740
0.0146;9.26657;5438.27801;9.26657
0.0146;9.26792;5476.40050;9.26792
0.0147;9.26966;5516.26596;9.26966
0.0147;9.27119;5558.91272;9.27119
0.0148;9.27221;5598.22191;9.27221
0.0148;9.27369;5638.01319;9.27369
0.0149;9.27317;5679.95535;9.27317
0.0149;9.27595;5721.41542;9.27595
0.0150;9.27944;5764.39594;9.27944
0.0150;9.27980;5802.77803;9.27980
0.0151;9.28351;5845.42479;9.28351
0.0151;9.28441;5880.91431;9.28441
0.0152;9.28608;5925.26695;9.28608
0.0152;9.28654;5967.17203;9.28654
0.0153;9.28653;6008.89168;9.28653
0.0153;9.28978;6050.90802;9.28978
0.0154;9.29049;6094.96397;9.29049
0.0154;9.29401;6131.41768;9.29401
0.0155;9.29420;6174.36112;9.29420
0.0155;9.29490;6211.03734;9.29490
0.0156;9.29815;6257.17001;9.29815
0.0156;9.30224;6298.59299;9.30224
0.0156;9.30332;6339.05179;9.30332
0.0157;9.30646;6382.69982;9.30646
0.0157;9.31070;6421.30441;9.31070
0.0158;9.31237;6460.98444;9.31237
0.0158;9.31394;6499.18111;9.31394
0.0159;9.31460;6539.60282;9.31460
0.0159;9.31765;6581.06289;9.31765
0.0160;9.31848;6624.19175;9.31848
0.0160;9.31735;6665.98558;9.31735
0.0161;9.31842;6708.52109;9.31842
0.0161;9.31987;6747.90444;9.31987
0.0162;9.32497;6786.13819;9.32497
0.0162;9.32682;6827.37576;9.32682
0.0163;9.32675;6865.42409;9.32675
0.0163;9.32748;6904.43660;9.32748
0.0164;9.32988;6944.22788;9.32988
0.0164;9.32946;6987.50508;9.32946
0.0165;9.33091;7025.81299;9.33091
0.0165;9.33295;7065.82678;9.33295
0.0166;9.33479;7104.13470;9.33479
0.0166;9.33553;7145.22393;9.33553
0.0167;9.33789;7180.97304;9.33789
0.0167;9.34016;7216.68507;9.34016
0.0168;9.34173;7253.65796;9.34173
0.0168;9.34370;7293.93133;9.34370
0.0168;9.34585;7331.57174;9.34585
0.0169;9.35060;7371.77095;9.35060
0.0169;9.35395;7411.33972;9.35395
0.0170;9.35624;7449.87015;9.35624
0.0170;9.36081;7491.18188;9.36081
0.0171;9.36535;7530.71357;9.36535
0.0171;9.36770;7572.02531;9.36770
0.0172;9.37364;7608.77569;9.37364
0.0172;9.37608;7648.71531;9.37608
0.0173;9.37836;7690.80581;9.37836
0.0173;9.37767;7723.99612;9.37767
0.0174;9.38326;7765.15951;9.38326
0.0174;9.38580;7805.76665;9.38580
0.0175;9.38736;7841.07075;9.38736
0.0175;9.38735;7877.26487;9.38735
0.0176;9.39218;7906.19050;9.39218
0.0176;9.39443;7935.63531;9.39443
0.0177;9.39681;7965.48804;9.39681
0.0177;9.39851;8000.12463;9.39851
0.0178;9.40184;8031.79448;9.40184
0.0178;9.40440;8059.19966;9.40440
0.0179;9.40719;8086.08567;9.40719
0.0179;9.40923;8106.96404;9.40923
0.0180;9.41336;8127.69407;9.41336
0.0180;9.41582;8145.64280;9.41582
0.0180;9.42045;8168.15287;9.42045
0.0181;9.42285;8183.95071;9.42285
0.0181;9.42339;8198.67312;9.42339
0.0182;9.42651;8211.13339;9.42651
0.0182;9.42973;8221.10902;9.42973
0.0183;9.43065;8230.49131;9.43065
0.0183;9.43266;8239.28025;9.43266
0.0184;9.43451;8247.69835;9.43451
0.0184;9.43632;8251.29551;9.43632
0.0185;9.43669;8258.89776;9.43669
0.0185;9.44177;8266.79669;9.44177
0.0186;9.44549;8269.54091;9.44549
0.0186;9.44489;8271.20970;9.44489
0.0187;9.44828;8268.91048;9.44828
0.0187;9.45384;8268.02046;9.45384
0.0188;9.45800;8269.57800;9.45800
0.0188;9.46052;8267.79796;9.46052
0.0189;9.46344;8263.57036;9.46344
0.0189;9.46743;8258.19316;9.46743
0.0190;9.47158;8253.78015;9.47158
0.0190;9.47760;8244.17536;9.47760
0.0191;9.47902;8238.35315;9.47902
0.0191;9.48165;8231.23299;9.48165
0.0192;9.48566;8223.25990;9.48566
0.0192;9.49182;8215.47223;9.49182
0.0192;9.49399;8206.01578;9.49399
0.0193;9.49775;8198.00560;9.49775
0.0193;9.50284;8189.10541;9.50284
0.0194;9.50899;8180.46481;9.50899
0.0194;9.51289;8169.89583;9.51289
0.0195;9.51646;8161.29230;9.51646
0.0195;9.52156;8147.42284;9.52156
0.0196;9.52942;8137.48429;9.52942
0.0196;9.53295;8123.76315;9.53295
0.0197;9.53612;8109.18909;9.53612
0.0197;9.54239;8095.43087;9.54239
0.0198;9.54774;8074.36708;9.54774
0.0198;9.54956;8055.97334;9.54956
0.0199;9.55130;8034.87247;9.55130
0.0199;9.55282;8016.73832;9.55282
0.0200;9.55710;7996.60163;9.55710
0.0200;9.55743;7978.50457;9.55743
0.0201;9.56005;7957.36661;9.56005
0.0201;9.56598;7932.22357;9.56598
0.0202;9.57115;7913.60733;9.57115
0.0202;9.57371;7888.87221;9.57371
0.0203;9.57501;7863.58082;9.57501
0.0203;9.57609;7837.69609;9.57609
0.0204;9.57908;7810.77300;9.57908
0.0204;9.58064;7787.18749;9.58064
0.0204;9.58122;7765.01117;9.58122
0.0205;9.58525;7741.05482;9.58525
0.0205;9.58948;7714.50258;9.58948
0.0206;9.59225;7686.80072;9.59225
0.0206;9.59653;7655.65004;9.59653
0.0207;9.60221;7624.98146;9.60221
0.0207;9.60768;7593.38577;9.60768
0.0208;9.61457;7555.18911;9.61457
0.0208;9.62243;7523.07424;9.62243
0.0209;9.62658;7486.54636;9.62658
0.0209;9.63166;7451.01975;9.63166
0.0210;9.63835;7411.67348;9.63835
0.0210;9.64153;7373.36556;9.64153
0.0211;9.64802;7326.89913;9.64802
0.0211;9.65397;7283.80736;9.65397
0.0212;9.65923;7234.33712;9.65923
0.0212;9.66096;7179.82343;9.66096
0.0213;9.66480;7116.85456;9.66480
0.0213;9.66789;7049.36142;9.66789
0.0214;9.67061;6966.40420;9.67061
0.0214;9.67592;6856.74640;9.67592
0.0215;9.67874;6666.43059;9.67874
0.0215;9.68100;6390.63583;9.68100
0.0216;9.68451;5990.90588;9.68451
0.0216;9.68864;5520.45646;9.68864
0.0216;9.68963;5020.11724;9.68963
0.0217;9.69487;4614.00881;9.69487
0.0217;9.69870;4332.50309;9.69870
0.0218;9.70279;4106.21567;9.70279
0.0218;9.70982;3851.67012;9.70982
0.0219;9.71445;3624.60393;9.71445
0.0219;9.72321;3386.04165;9.72321
0.0220;9.72829;3174.47663;9.72829
0.0220;9.73731;2908.17541;9.73731
0.0221;9.74821;2516.60397;9.74821
0.0221;9.75302;2014.74429;9.75302
0.0222;9.75723;1465.63942;9.75723
0.0222;9.76077;1123.68655;9.76077
0.0223;9.76546;1088.93871;9.76546
0.0223;9.77079;1031.05037;9.77079
0.0224;9.77852;903.92593;9.77852
0.0224;9.79057;1004.60938;9.79057
0.0225;9.80344;1175.82685;9.80344
0.0225;9.81319;1205.23458;9.81319
0.0226;9.81931;1228.48633;9.81931
0.0226;9.82134;1211.68722;9.82134
0.0227;9.82405;1120.90524;9.82405
0.0227;9.83001;1049.66661;9.83001
0.0228;9.83733;1004.16437;9.83733
0.0228;9.84795;988.58903;9.84795
0.0228;9.85683;1001.42014;9.85683
0.0229;9.86639;1015.88296;9.86639
0.0229;9.87758;1048.47992;9.87758
0.0230;9.88513;1090.16249;9.88513
0.0230;9.89141;1089.49497;9.89141
0.0231;9.89279;1047.88657;9.89279
0.0231;9.89797;993.00204;9.89797
0.0232;9.89903;929.43982;9.89903
0.0232;9.90394;877.70745;9.90394
0.0233;9.91386;866.76762;9.91386
0.0233;9.92579;883.49257;9.92579
0.0234;9.93380;913.08572;9.93380
0.0234;9.94599;952.43199;9.94599
0.0235;9.95535;984.02768;9.95535
0.0235;9.95962;1002.86642;9.95962
0.0236;9.96604;1007.42777;9.96604
0.0236;9.97025;983.39725;9.97025
0.0237;9.97800;944.45890;9.97800
0.0237;9.98420;901.84922;9.98420
0.0238;9.98990;874.36987;9.98990
0.0238;9.99704;857.94160;9.99704
0.0239;10.00424;865.17301;10.00424
0.0239;10.01142;882.38005;10.01142
0.0240;10.01808;893.87613;10.01808
0.0240;10.02457;898.51165;10.02457
0.0240;10.02971;898.10372;10.02971
0.0241;10.03790;891.46566;10.03790
0.0241;10.04148;881.52711;10.04148
0.0242;10.04770;869.91978;10.04770
0.0242;10.05144;870.84688;10.05144
0.0243;10.05710;876.70617;10.05710
0.0243;10.06327;885.08719;10.06327
0.0244;10.06668;902.73924;10.06668
0.0244;10.07394;915.12534;10.07394
0.0245;10.07958;915.60744;10.07958
0.0245;10.08608;905.03846;10.08608
0.0246;10.09223;892.50402;10.09223
0.0246;10.09594;877.15118;10.09594
0.0247;10.10271;854.93778;10.10271
0.0247;10.10888;841.14248;10.10888
0.0248;10.11366;835.57986;10.11366
0.0248;10.11583;844.48006;10.11583
0.0249;10.11913;861.87252;10.11913
0.0249;10.12305;884.45676;10.12305
0.0250;10.12811;901.07046;10.12811
0.0250;10.13137;915.53327;10.13137
0.0251;10.13323;916.75705;10.13323
0.0251;10.13560;916.75705;10.13560
0.0252;10.13980;910.15607;10.13980
0.0252;10.14118;904.11135;10.14118
0.0253;10.14428;903.29550;10.14428
0.0253;10.15073;901.10754;10.15073
0.0254;10.15417;900.25460;10.15417
0.0254;10.15771;899.47584;10.15771
0.0255;10.16117;899.06791;10.16117
0.0255;10.16335;893.46821;10.16335
0.0256;10.16569;890.31605;10.16569
0.0256;10.16937;892.31860;10.16937
0.0257;10.17123;899.92085;10.17123
0.0257;10.17461;914.68033;10.17461
0.0258;10.17526;934.03826;10.17526
0.0258;10.17580;953.32201;10.17580
0.0259;10.17753;973.75537;10.17753
0.0259;10.18020;982.72973;10.18020
0.0260;10.18063;991.29617;10.18063
0.0261;10.18189;993.52122;10.18189
0.0261;10.18116;985.25145;10.18116
0.0262;10.18364;980.02259;10.18364
0.0262;10.18084;977.27836;10.18084
0.0263;10.18101;985.91897;10.18101
0.0264;10.18227;996.85879;10.18227
0.0264;10.18378;1001.86515;10.18378
0.0264;10.18440;1012.35996;10.18440
0.0265;10.18336;1022.11309;10.18336
0.0265;10.18401;1035.16671;10.18401
0.0266;10.18341;1051.14997;10.18341
0.0266;10.18332;1065.76112;10.18332
0.0267;10.18240;1082.63441;10.18240
0.0267;10.18489;1099.32227;10.18489
0.0268;10.18343;1113.48841;10.18343
0.0268;10.18335;1125.35534;10.18335
0.0269;10.18515;1124.72491;10.18515
0.0270;10.18341;1118.86561;10.18341
0.0271;10.18465;1116.41806;10.18465
0.0272;10.18698;1119.42188;10.18698
0.0272;10.18571;1131.21463;10.18571
0.0273;10.18712;1142.19154;10.18712
0.0273;10.18886;1158.10064;10.18886
0.0274;10.18914;1170.26423;10.18914
0.0274;10.18723;1178.20024;10.18723
0.0275;10.18759;1187.17460;10.18759
0.0275;10.18892;1188.39838;10.18892
0.0276;10.19079;1194.99936;10.19079
0.0277;10.19201;1199.07861;10.19201
0.0278;10.19579;1201.97117;10.19579
0.0279;10.19767;1203.04661;10.19767
0.0279;10.20081;1195.81521;10.20081
0.0280;10.20150;1187.61961;10.20150
0.0281;10.20544;1187.80503;10.20544
0.0281;10.21014;1189.69632;10.21014
0.0282;10.21303;1197.37274;10.21303
0.0282;10.21868;1207.57088;10.21868
0.0283;10.22307;1215.35855;10.22307
0.0283;10.22954;1212.09514;10.22954
0.0284;10.23535;1208.94299;10.23535
0.0284;10.23915;1201.48908;10.23915
0.0285;10.24674;1190.28967;10.24674
0.0285;10.25005;1179.60944;10.25005
0.0286;10.25562;1169.74506;10.25562
0.0286;10.26186;1160.06610;10.26186
0.0287;10.26798;1157.24770;10.26798
0.0287;10.27257;1155.20807;10.27257
0.0288;10.27661;1151.75925;10.27661
0.0288;10.28148;1150.64672;10.28148
0.0288;10.28495;1148.86668;10.28495
0.0289;10.28701;1141.26444;10.28701
0.0289;10.28889;1138.33479;10.28889
0.0290;10.29418;1135.21972;10.29418
0.0290;10.29811;1135.66473;10.29811
0.0291;10.30431;1135.73890;10.30431
0.0291;10.30606;1134.40387;10.30606
0.0292;10.31038;1139.26189;10.31038
0.0292;10.31698;1134.88596;10.31698
0.0293;10.32165;1131.95632;10.32165
0.0293;10.33019;1123.87197;10.33019
0.0294;10.33466;1113.56258;10.33466
0.0294;10.33876;1105.88617;10.33876
0.0295;10.34559;1098.32100;10.34559
0.0295;10.35267;1093.94507;10.35267
0.0296;10.35968;1092.72130;10.35968
0.0296;10.36804;1095.94762;10.36804
0.0297;10.37104;1105.10740;10.37104
0.0297;10.37371;1113.78509;10.37371
0.0298;10.37886;1113.15466;10.37886
0.0298;10.38069;1118.42060;10.38069
0.0299;10.38440;1116.38098;10.38440
0.0300;10.39155;1109.44624;10.39155
0.0300;10.39857;1104.36572;10.39857
0.0300;10.40430;1101.36190;10.40430
0.0301;10.41035;1093.75965;10.41035
0.0301;10.41636;1093.79674;10.41636
0.0302;10.42458;1093.57423;10.42458
0.0302;10.42941;1089.86582;10.42941
0.0303;10.43580;1088.19703;10.43580
0.0303;10.43815;1092.38754;10.43815
0.0304;10.44402;1089.34664;10.44402
0.0304;10.44832;1091.60877;10.44832
0.0305;10.45338;1094.01924;10.45338
0.0305;10.45849;1098.24683;10.45849
0.0306;10.46053;1100.99106;10.46053
0.0306;10.46470;1102.28900;10.46470
0.0307;10.46420;1110.44751;10.46420
0.0307;10.46843;1110.55877;10.46843
0.0308;10.47280;1110.07667;10.47280
0.0308;10.47841;1112.63548;10.47841
0.0309;10.48779;1107.81454;10.48779
0.0309;10.49527;1111.52295;10.49527
0.0310;10.50251;1103.54986;10.50251
