Part protocol
Network name;Part_Maxymos_1_MP-001_2017-03-14_14-22-30_Sila_bl_trans150obr_tepy_023_NOK.csv
Protocol version;3.01.00






Result information
Date;2017/03/14
Time;14:22:30
Cycle number;23
Total result;NOK
Triggered switch signals
Part serial number;Sila_bl_trans150obr_tepy_023
Measuring program name;BL_rans
Measuring program number;1
Zero X offset;0.000;mm
Tara Y offset;0;N









Process values - curve related
Block X;10.506;mm;XMIN-X;8.153;mm
Block Y;1162;N;XMIN-Y;-3;N
Ref X;9.118;mm;XMAX-X;10.506;mm
Peak-peak X;2.352;mm;XMAX-Y;1162;N
Peak-peak Y;8248;N;YMIN-X;8.181;mm
;;;YMIN-Y;-5;N
;;;YMAX-X;9.452;mm
;;;YMAX-Y;8243;N

Process values - EO related;Result;Entry;Exit;XMIN-X;XMIN-Y;XMAX-X;XMAX-Y;YMIN-Y;YMIN-X;YMAX-Y;YMAX-X;Calculated result;NOK cause;Violation X;Violation Y;Ref X;Ref Y;Switch force;Y-Diff;X-Diff;Force deviation ratio;Click ratio;Contact edge
;;;;mm;N;mm;N;N;mm;N;mm;-;-;-;-;-;-;-;-;-;-;-;-;
EO-01;OK;9.051;;;;;;;;;;;;;;;;
EO-02;NOK;;;;;;;;;;;-0.4017;;;;;;
EO-03;OK;;;;;;;;;;;;;;;;;
EO-04;None;
EO-05;None;
EO-06;None;
EO-07;None;
EO-08;None;
EO-09;None;
EO-10;None;


















Evaluation objects settings;Reaction;X reference;Y-Reference;XMin;XMax;YMin;YMax;Entry;Exit;Curve part;Catch zone X;Catch zone Y;EO Name;EO description;Re-entry ignored;Generate statistics;X-Hysteresis;Y-Hysteresis;Down sampling rate;Calc limit min;Calc limit max;Grad limit min;Grad limit max;Hyst limit min;Hyst limit max;Speed limit min;Speed limit max;Time limit min;Time limit max;Is curve inside box;GetRef type;CalcInput1 | dx;CalcInput2 | dx;Calc operation;Average limit min;Average limit max;Break max bending;Visualization offset X;Visualization offset Y;-;-;-
EO-01;LINE-X;ABSOLUTE;ABSOLUTE;8.689;9.496;1000;;BELOW;NONE;ANY;+50%;+0%;;;FALSE;TRUE;0.0;0.0;1;;;;;;;;;;;;;;;;;;;0.000;0;;;
EO-02;CALC;ABSOLUTE;ABSOLUTE;7.603;;4166;;NONE;NONE;ANY;+0%;+0%;;;FALSE;TRUE;0.0;0.0;1;-0.360000;-0.280000;;;;;;;;;;;EO-01 | ENTRY;PV_TABLE_CURVE | YMAX-X;Subtraction;;;;0.000;0;;;
EO-03;NO-PASS;ABSOLUTE;ABSOLUTE;7.653;12.250;8743;;NONE;NONE;ANY;+0%;+0%;;;FALSE;TRUE;0.0;0.0;1;;;;;;;;;;;;;;;;;;;0.000;0;;;
EO-04;OFF
EO-05;OFF
EO-06;OFF
EO-07;OFF
EO-08;OFF
EO-09;OFF
EO-10;OFF



















Switch signal settings;Channel;Threshold at;;Trigger from;Reference;Latch until
Type S1;X;9.860;mm;LEFT;ABSOLUTE;None
Type S2;X;11.480;mm;LEFT;ABSOLUTE;None

















Device information
Device type;maXYmos TL
Device type number;5877A0
Device serial number;4915791
Firmware version;1.1.12 (r21150-TL_v1.1.x)
-
-
-
-
-
IP Address;192.168.21.10
Network name;Maxymos 1
Profibus address;10
-
-
-
Station name;Maxymos 1
Company name;ITW WIP PW
Comment;











Channel-X settings
Use the settings from global setup;True
Sensor-X type;Potentiometer
Unit;mm
Used range from;8.000;mm
Used range to;12.000;mm
Decimal places;XXX.XXX
Scaling by;Teach-In
Point 1;-0.380;mm;16.488;%
Point 2;72.105;mm;72.105;%
Invert signal;FALSE
Filter;OFF
Test point;0.000;mm
Tolerance;0.010;mm
Enable sensor test by dig-input;FALSE
Zoom from;0.000;mm
Zoom to;25.000;mm
Master Measurement Enable;FALSE
Master Measurement Nominal Position;0.000;mm
Encoder interpolation factor;-
Encoder electrical interface;-
Encoder referencing type;-
Encoder referencing edge;-
Encoder pulses per minute;-
Encoder use every nth-mark;-
Reference;-
Encoder reference points;-
Encoder coding;-
Encoder width;-
Encoder optimization;-
Encoder clock frequency;-
Termination resistor;-








Channel-Y settings
Use the settings from global setup;True
Sensor-Y type;Piezo
Unit;N
Used range from;0;N
Used range to;190000;N
Decimal places;XXXXXX
Scaling by;Calibration Sheet
Sensitivity;-4.3000;pC/N
-
Invert signal;FALSE
Filter;OFF
Piezo reset;TRUE
Test point;0;N
Tolerance;0;N
Enable sensor test by dig-input;FALSE
Zoom from;0;N
Zoom to;1000;N












Cycle control settings
Use the settings from global setup;True
Measuring function;Y (X)
Delta-X;User-Defined;0.00100;mm
START condition;Threshold-X;8.000;mm;Trigger from;LEFT
STOP condition;Threshold-X;10.500;mm;Trigger from;LEFT
Cycle time out;0.25;s
Turning point RIGHT;NONE
Turning point LEFT;NONE
Cut curve at;NONE










Evaluation settings
Capture only first NOK-EO for statistics;False
Hysteresis X;0.0;%
Hysteresis Y;0.0;%






Trigger Y settings
Threshold at;1608;N
Value X at TRIGGER Y;0.000;mm
Approach from;BELOW






Block settings
Value X at block;XMAX
Block at;0.000;mm







Measuring curve
Number of measuring points;623
Ref. Graph on;ABSOLUTE
Curve segments;0;623;


Time;X(ABSOLUTE);Y;X (ABSOLUTE)


s;mm;N;mm
0.0000;8.15324;-3.44883;8.15324
0.0001;8.17204;-2.85548;8.17204
0.0002;8.18051;-4.63552;8.18051
0.0002;8.18698;-3.18924;8.18698
0.0003;8.19183;-2.11380;8.19183
0.0003;8.19666;-2.74423;8.19666
0.0004;8.19953;-3.18924;8.19953
0.0004;8.20138;1.29794;8.20138
0.0005;8.20289;-0.25959;8.20289
0.0005;8.20549;0.59335;8.20549
0.0006;8.21145;-0.89002;8.21145
0.0006;8.21386;4.70969;8.21386
0.0007;8.21855;6.34139;8.21855
0.0007;8.22123;8.45518;8.22123
0.0008;8.22762;10.12397;8.22762
0.0008;8.23542;10.68023;8.23542
0.0009;8.24052;13.98072;8.24052
0.0009;8.24607;17.02162;8.24607
0.0010;8.25067;17.46663;8.25067
0.0010;8.25566;14.61115;8.25566
0.0011;8.26167;16.65078;8.26167
0.0012;8.26842;17.35538;8.26842
0.0012;8.27004;17.42955;8.27004
0.0013;8.27335;16.39119;8.27335
0.0013;8.27739;19.61751;8.27739
0.0014;8.28104;19.80293;8.28104
0.0016;8.28643;26.03307;8.28643
0.0016;8.28942;29.33356;8.28942
0.0017;8.29316;30.59442;8.29316
0.0017;8.29806;31.59569;8.29806
0.0018;8.30723;33.85782;8.30723
0.0018;8.31361;38.86418;8.31361
0.0019;8.32106;38.90126;8.32106
0.0019;8.33057;40.34755;8.33057
0.0020;8.33526;61.00341;8.33526
0.0020;8.34011;200.73645;8.34011
0.0021;8.34140;236.04056;8.34140
0.0021;8.34483;80.99176;8.34483
0.0022;8.34785;73.79744;8.34785
0.0022;8.35052;119.52219;8.35052
0.0023;8.35523;52.80782;8.35523
0.0023;8.36136;52.80782;8.36136
0.0024;8.36547;27.29393;8.36547
0.0024;8.36579;12.31193;8.36579
0.0024;8.37220;52.02905;8.37220
0.0025;8.37590;56.99832;8.37590
0.0025;8.38137;74.13120;8.38137
0.0026;8.38384;99.53383;8.38384
0.0026;8.38880;70.23736;8.38880
0.0027;8.39539;76.28208;8.39539
0.0027;8.39706;78.13628;8.39706
0.0028;8.40166;46.61477;8.40166
0.0028;8.40298;71.12738;8.40298
0.0029;8.40869;52.32572;8.40869
0.0029;8.41263;57.81418;8.41263
0.0030;8.41836;93.26661;8.41836
0.0030;8.42215;77.58002;8.42215
0.0031;8.42647;102.46348;8.42647
0.0031;8.42880;84.18100;8.42880
0.0032;8.43137;65.86143;8.43137
0.0032;8.43523;83.21681;8.43523
0.0033;8.44164;54.81036;8.44164
0.0033;8.44445;64.56349;8.44445
0.0034;8.44757;77.35752;8.44757
0.0034;8.45134;65.00850;8.45134
0.0035;8.45466;85.81270;8.45466
0.0035;8.45841;83.73599;8.45841
0.0036;8.46100;85.77562;8.46100
0.0036;8.46293;104.54019;8.46293
0.0036;8.46471;90.26280;8.46471
0.0037;8.46735;172.70084;8.46735
0.0037;8.47766;484.91223;8.47766
0.0038;8.47804;261.66570;8.47804
0.0038;8.48747;89.70654;8.48747
0.0039;8.49252;228.28997;8.49252
0.0039;8.49395;164.17149;8.49395
0.0040;8.49742;112.21661;8.49742
0.0040;8.50222;114.96084;8.50222
0.0041;8.50536;40.27338;8.50536
0.0041;8.51015;99.16299;8.51015
0.0042;8.51532;120.93138;8.51532
0.0042;8.51837;121.11680;8.51837
0.0043;8.52199;185.86571;8.52199
0.0043;8.52756;158.75721;8.52756
0.0044;8.53777;119.26260;8.53777
0.0044;8.54368;160.68558;8.54368
0.0045;8.54563;229.73625;8.54563
0.0045;8.54699;511.57572;8.54699
0.0046;8.55107;261.18360;8.55107
0.0046;8.56066;69.71818;8.56066
0.0047;8.56509;292.70512;8.56509
0.0047;8.57083;191.02041;8.57083
0.0048;8.57382;144.73940;8.57382
0.0048;8.57328;183.93734;8.57328
0.0048;8.57708;30.74275;8.57708
0.0049;8.58033;136.84048;8.58033
0.0049;8.58180;219.87187;8.58180
0.0050;8.58427;473.19364;8.58427
0.0050;8.58728;426.28220;8.58728
0.0051;8.59126;168.32492;8.59126
0.0051;8.59658;247.90748;8.59658
0.0052;8.60035;266.59789;8.60035
0.0052;8.60210;94.52748;8.60210
0.0053;8.60397;196.69428;8.60397
0.0053;8.60622;359.34533;8.60622
0.0054;8.61291;248.01873;8.61291
0.0054;8.61768;207.55994;8.61768
0.0055;8.62174;236.30015;8.62174
0.0055;8.62987;319.25737;8.62987
0.0056;8.63352;372.88104;8.63352
0.0056;8.63677;419.86664;8.63677
0.0057;8.64062;275.12724;8.64062
0.0057;8.64490;110.21407;8.64490
0.0058;8.64370;200.47687;8.64370
0.0058;8.64824;323.55913;8.64824
0.0059;8.64837;397.17115;8.64837
0.0059;8.65384;341.54494;8.65384
0.0060;8.65925;178.37472;8.65925
0.0060;8.66475;306.05541;8.66475
0.0060;8.66697;498.44794;8.66697
0.0061;8.66763;370.54474;8.66763
0.0061;8.67361;260.21942;8.67361
0.0062;8.67531;200.29144;8.67531
0.0062;8.68092;340.76617;8.68092
0.0063;8.68333;455.50450;8.68333
0.0063;8.68582;270.49172;8.68582
0.0064;8.69005;274.12597;8.69005
0.0064;8.69527;409.77976;8.69527
0.0065;8.69848;349.96304;8.69848
0.0065;8.70146;307.98379;8.70146
0.0066;8.70659;308.61422;8.70659
0.0066;8.70684;424.46508;8.70684
0.0067;8.70807;397.43074;8.70807
0.0067;8.71372;256.36267;8.71372
0.0068;8.71816;363.20208;8.71816
0.0068;8.72427;430.99189;8.72427
0.0069;8.72769;347.33006;8.72769
0.0069;8.73133;358.78906;8.73133
0.0070;8.73673;398.02408;8.73673
0.0070;8.74175;403.36420;8.74175
0.0071;8.74598;367.50384;8.74598
0.0071;8.75090;379.92702;8.75090
0.0072;8.75248;446.78973;8.75248
0.0072;8.75466;390.90393;8.75466
0.0072;8.75733;336.87234;8.75733
0.0073;8.75920;405.47800;8.75920
0.0073;8.76458;382.59708;8.76458
0.0074;8.77168;381.26205;8.77168
0.0074;8.77647;423.79756;8.77647
0.0075;8.77887;416.04698;8.77887
0.0075;8.78199;421.09042;8.78199
0.0076;8.78353;414.37819;8.78353
0.0076;8.78737;442.19130;8.78737
0.0077;8.79292;440.89335;8.79292
0.0077;8.79508;410.74394;8.79508
0.0078;8.79806;426.72721;8.79806
0.0079;8.80498;438.14912;8.80498
0.0079;8.80759;461.06712;8.80759
0.0080;8.81142;459.76918;8.81142
0.0080;8.81646;455.65284;8.81646
0.0081;8.82715;449.23728;8.82715
0.0081;8.83385;440.89335;8.83385
0.0082;8.83635;438.14912;8.83635
0.0082;8.84284;443.19257;8.84284
0.0083;8.84839;450.64648;8.84839
0.0083;8.85205;441.44961;8.85205
0.0084;8.85555;441.26419;8.85555
0.0084;8.85953;466.37016;8.85953
0.0084;8.86383;478.83043;8.86383
0.0085;8.86727;475.38160;8.86727
0.0085;8.87072;478.57084;8.87072
0.0086;8.87295;470.59775;8.87295
0.0086;8.87752;467.96477;8.87752
0.0087;8.88378;480.98131;8.88378
0.0088;8.88754;494.99911;8.88754
0.0088;8.89061;483.54011;8.89061
0.0089;8.89248;495.88913;8.89248
0.0089;8.89731;507.31105;8.89731
0.0090;8.90281;495.62954;8.90281
0.0090;8.90505;503.41721;8.90505
0.0091;8.90920;506.42103;8.90920
0.0091;8.91534;492.51448;8.91534
0.0092;8.91689;493.18199;8.91689
0.0092;8.92330;503.67680;8.92330
0.0093;8.93097;515.65498;8.93097
0.0094;8.93634;518.91838;8.93634
0.0094;8.94149;528.18942;8.94149
0.0095;8.94435;524.48100;8.94435
0.0095;8.95020;523.07181;8.95020
0.0096;8.95707;527.96691;8.95707
0.0096;8.96320;530.11779;8.96320
0.0096;8.96931;530.04363;8.96931
0.0097;8.97022;536.16251;8.97022
0.0097;8.97491;542.98599;8.97491
0.0098;8.97649;549.36446;8.97649
0.0098;8.98076;547.28775;8.98076
0.0099;8.98251;558.19049;8.98251
0.0099;8.98690;564.12395;8.98690
0.0100;8.98944;578.21592;8.98944
0.0100;8.99282;600.16974;8.99282
0.0101;8.99701;632.17335;8.99701
0.0101;9.00140;657.35348;9.00140
0.0102;9.00450;686.13077;9.00450
0.0102;9.00863;714.64848;9.00863
0.0103;9.01649;751.54720;9.01649
0.0103;9.02077;776.24524;9.02077
0.0104;9.02970;808.28593;9.02970
0.0104;9.03255;841.73583;9.03255
0.0105;9.04028;880.93377;9.04028
0.0105;9.04294;922.69051;9.04294
0.0106;9.04626;963.33473;9.04626
0.0106;9.05220;1013.21290;9.05220
0.0107;9.05471;1064.68568;9.05471
0.0107;9.05678;1099.80437;9.05678
0.0108;9.06087;1144.23117;9.06087
0.0108;9.06549;1187.80503;9.06549
0.0108;9.06779;1219.73448;9.06779
0.0109;9.07327;1263.08584;9.07327
0.0109;9.07715;1290.37977;9.07715
0.0110;9.07847;1320.78876;9.07847
0.0110;9.08161;1355.42535;9.08161
0.0111;9.08442;1378.89961;9.08442
0.0111;9.08993;1410.56947;9.08993
0.0112;9.09069;1439.38384;9.09069
0.0112;9.09305;1463.04353;9.09305
0.0113;9.09363;1488.89117;9.09363
0.0113;9.09515;1514.47923;9.09515
0.0114;9.09727;1536.98930;9.09727
0.0114;9.09996;1553.26924;9.09996
0.0115;9.10596;1572.25632;9.10596
0.0115;9.10994;1593.28303;9.10994
0.0116;9.11515;1606.81874;9.11515
0.0116;9.11850;1624.58204;9.11850
0.0117;9.12273;1646.35043;9.12273
0.0117;9.12820;1664.55875;9.12820
0.0118;9.13146;1682.76706;9.13146
0.0118;9.13570;1706.76050;9.13570
0.0119;9.13956;1726.56343;9.13956
0.0119;9.14370;1743.91881;9.14370
0.0120;9.14437;1757.38035;9.14437
0.0120;9.14778;1773.62321;9.14778
0.0120;9.14885;1796.94913;9.14885
0.0121;9.15020;1817.60500;9.15020
0.0121;9.15266;1857.47045;9.15266
0.0122;9.15698;1914.17210;9.15698
0.0122;9.15530;1981.22023;9.15530
0.0123;9.15630;2045.48704;9.15630
0.0123;9.16075;2109.90220;9.16075
0.0124;9.16249;2173.68692;9.16249
0.0124;9.16776;2238.17624;9.16776
0.0125;9.17265;2295.17456;9.17265
0.0125;9.17675;2345.42357;9.17675
0.0126;9.17864;2396.30302;9.17864
0.0126;9.17981;2440.98941;9.17981
0.0127;9.18201;2490.53382;9.18201
0.0127;9.18271;2539.26238;9.18271
0.0128;9.18528;2585.39505;9.18528
0.0128;9.18495;2637.72077;9.18495
0.0129;9.18799;2686.52350;9.18799
0.0129;9.19206;2735.47457;9.19206
0.0130;9.19021;2782.27475;9.19021
0.0130;9.19146;2831.48541;9.19146
0.0131;9.19494;2874.54010;9.19494
0.0131;9.19772;2925.97580;9.19772
0.0132;9.19892;2972.47931;9.19892
0.0132;9.20429;3022.43165;9.20429
0.0132;9.20679;3083.32381;9.20679
0.0133;9.20932;3145.18016;9.20932
0.0133;9.21191;3213.93415;9.21191
0.0134;9.21400;3285.76613;9.21400
0.0134;9.21570;3362.75281;9.21570
0.0135;9.21524;3451.60641;9.21524
0.0135;9.21789;3542.72215;9.21789
0.0136;9.22148;3636.95295;9.22148
0.0136;9.22425;3739.60185;9.22425
0.0137;9.22693;3838.39400;9.22693
0.0137;9.22768;3939.89330;9.22768
0.0138;9.23040;4043.06138;9.23040
0.0138;9.23410;4138.92388;9.23410
0.0139;9.23771;4232.63550;9.23771
0.0139;9.23794;4323.30623;9.23794
0.0140;9.23878;4412.23400;9.23878
0.0140;9.23745;4490.88946;9.23745
0.0141;9.24017;4565.79943;9.24017
0.0141;9.24133;4631.43835;9.24133
0.0142;9.24239;4692.47885;9.24239
0.0142;9.24421;4752.48099;9.24421
0.0143;9.24564;4809.18264;9.24564
0.0143;9.24624;4870.37147;9.24624
0.0144;9.24804;4926.44270;9.24804
0.0144;9.25051;4977.98965;9.25051
0.0144;9.25310;5035.02506;9.25310
0.0145;9.25477;5093.35841;9.25477
0.0145;9.25669;5146.16623;9.25669
0.0146;9.25891;5197.00859;9.25891
0.0146;9.26059;5249.85349;9.26059
0.0147;9.26308;5293.72403;9.26308
0.0147;9.26489;5342.11883;9.26489
0.0148;9.26529;5385.43311;9.26529
0.0148;9.26593;5436.57214;9.26593
0.0149;9.26769;5482.40814;9.26769
0.0149;9.27120;5529.24541;9.27120
0.0150;9.27246;5570.03796;9.27246
0.0150;9.27315;5611.09010;9.27315
0.0151;9.27439;5652.10516;9.27439
0.0151;9.27507;5693.23148;9.27507
0.0152;9.27856;5736.84243;9.27856
0.0152;9.28044;5778.41375;9.28044
0.0153;9.28430;5816.98125;9.28430
0.0153;9.28472;5857.29172;9.28472
0.0154;9.28680;5901.08809;9.28680
0.0154;9.28888;5947.55451;9.28888
0.0155;9.29275;5980.37398;9.29275
0.0155;9.29615;6021.72280;9.29615
0.0156;9.29771;6056.09979;9.29771
0.0156;9.29863;6095.18648;9.29863
0.0156;9.30005;6131.56602;9.30005
0.0157;9.30301;6169.31768;9.30301
0.0157;9.30492;6208.44145;9.30492
0.0158;9.30593;6246.67519;9.30593
0.0158;9.30906;6284.20435;9.30906
0.0159;9.31109;6319.69387;9.31109
0.0159;9.31286;6355.48006;9.31286
0.0160;9.31417;6395.49385;9.31417
0.0160;9.31710;6429.87085;9.31710
0.0161;9.31640;6470.29256;9.31640
0.0161;9.31846;6510.93678;9.31846
0.0162;9.32187;6547.31632;9.32187
0.0162;9.32251;6583.95546;9.32251
0.0163;9.32311;6621.78128;9.32311
0.0163;9.32254;6662.98176;9.32254
0.0164;9.32460;6702.66179;9.32460
0.0164;9.32748;6738.70758;9.32748
0.0165;9.33037;6779.61138;9.33037
0.0165;9.33028;6818.80932;9.33028
0.0166;9.33011;6855.33720;9.33011
0.0166;9.32914;6893.42261;9.32914
0.0167;9.33010;6931.13718;9.33010
0.0167;9.33193;6968.40674;9.33193
0.0168;9.33248;7009.68139;9.33248
0.0168;9.33441;7045.28217;9.33441
0.0168;9.33382;7078.99165;9.33382
0.0169;9.33546;7118.44918;9.33546
0.0169;9.33650;7153.60494;9.33650
0.0170;9.33751;7193.02539;9.33751
0.0170;9.33806;7225.47401;9.33806
0.0171;9.34024;7261.70521;9.34024
0.0171;9.34265;7297.71392;9.34265
0.0172;9.34558;7333.16635;9.34558
0.0172;9.35029;7365.54081;9.35029
0.0173;9.35323;7404.85000;9.35323
0.0173;9.35755;7440.85870;9.35755
0.0174;9.36021;7473.34441;9.36021
0.0174;9.36404;7510.72522;9.36404
0.0175;9.36852;7549.10731;9.36852
0.0175;9.37148;7586.59937;9.37148
0.0176;9.37354;7626.76150;9.37354
0.0176;9.37677;7661.32392;9.37677
0.0177;9.37916;7698.74182;9.37916
0.0177;9.38208;7729.63290;9.38208
0.0178;9.38443;7768.57125;9.38443
0.0178;9.38721;7807.13876;9.38721
0.0179;9.39111;7843.22163;9.39111
0.0179;9.39306;7879.93493;9.39306
0.0180;9.39519;7917.38991;9.39519
0.0180;9.39738;7947.53932;9.39738
0.0180;9.39822;7974.68491;9.39822
0.0181;9.40118;8003.64762;9.40118
0.0181;9.40367;8029.71777;9.40367
0.0182;9.40528;8060.42344;9.40528
0.0182;9.40963;8088.49614;9.40963
0.0183;9.41301;8112.19290;9.41301
0.0183;9.41323;8134.88840;9.41323
0.0184;9.41705;8152.87420;9.41705
0.0184;9.42012;8169.15414;9.42012
0.0185;9.42244;8182.39318;9.42244
0.0185;9.42807;8195.74347;9.42807
0.0186;9.43059;8208.31500;9.43059
0.0186;9.43397;8218.62439;9.43397
0.0187;9.43519;8225.33662;9.43519
0.0187;9.43567;8230.71382;9.43567
0.0188;9.43720;8236.16518;9.43720
0.0188;9.43977;8238.79816;9.43977
0.0189;9.44564;8240.42986;9.44564
0.0189;9.44690;8240.98612;9.44690
0.0190;9.45004;8242.09865;9.45004
0.0190;9.45229;8242.91450;9.45229
0.0191;9.45726;8240.42986;9.45726
0.0191;9.46222;8239.02066;9.46222
0.0192;9.46513;8232.27135;9.46513
0.0192;9.47026;8225.78163;9.47026
0.0192;9.47654;8217.58603;9.47654
0.0193;9.48208;8212.83926;9.48208
0.0193;9.48460;8203.41989;9.48460
0.0194;9.48861;8192.66549;9.48861
0.0194;9.49142;8182.61569;9.49142
0.0195;9.49613;8169.89583;9.49613
0.0195;9.50413;8150.76041;9.50413
0.0196;9.51176;8130.21579;9.51176
0.0196;9.51467;8113.04584;9.51467
0.0197;9.51570;8089.71991;9.51570
0.0197;9.52106;8066.83900;9.52106
0.0198;9.52690;8046.73939;9.52690
0.0198;9.53367;8021.37384;9.53367
0.0199;9.54112;7998.60418;9.54112
0.0199;9.54655;7973.42405;9.54655
0.0200;9.55099;7945.42552;9.55099
0.0200;9.55090;7913.53316;9.55090
0.0201;9.55479;7884.86712;9.55479
0.0201;9.55697;7854.01311;9.55697
0.0202;9.55887;7822.23200;9.55887
0.0202;9.56257;7789.00461;9.56257
0.0203;9.56620;7758.63270;9.56620
0.0203;9.56911;7724.66363;9.56911
0.0204;9.57276;7690.69456;9.57276
0.0204;9.57602;7655.20503;9.57602
0.0204;9.57808;7625.09271;9.57808
0.0205;9.57959;7585.30143;9.57959
0.0205;9.57976;7548.88480;9.57976
0.0206;9.58288;7513.06152;9.58288
0.0206;9.58563;7477.16407;9.58563
0.0207;9.59038;7439.41242;9.59038
0.0207;9.59253;7402.17994;9.59253
0.0208;9.59542;7363.38993;9.59542
0.0208;9.60031;7321.44777;9.60031
0.0209;9.60889;7282.50942;9.60889
0.0209;9.61775;7241.56853;9.61775
0.0210;9.62359;7199.62636;9.62359
0.0210;9.63133;7151.52823;9.63133
0.0211;9.63439;7109.10398;9.63439
0.0211;9.63678;7060.18999;9.63678
0.0212;9.64341;7002.59832;9.64341
0.0212;9.64967;6945.71125;9.64967
0.0213;9.65613;6879.03397;9.65613
0.0213;9.65764;6805.90404;9.65764
0.0214;9.66083;6714.75122;9.66083
0.0214;9.66402;6585.17923;9.66402
0.0215;9.66755;6406.13700;9.66755
0.0215;9.67081;6127.67219;9.67081
0.0216;9.67352;5691.19185;9.67352
0.0216;9.67807;5176.83481;9.67807
0.0216;9.68065;4816.52530;9.68065
0.0217;9.68254;4589.23660;9.68254
0.0217;9.68629;4348.89429;9.68629
0.0218;9.69041;4136.17965;9.69041
0.0218;9.69330;3981.61295;9.69330
0.0219;9.69927;3866.87462;9.69927
0.0219;9.70559;3723.61859;9.70559
0.0220;9.71281;3464.10377;9.71281
0.0220;9.71931;3100.71627;9.71931
0.0221;9.72639;2777.71340;9.72639
0.0221;9.73492;2422.52150;9.73492
0.0222;9.73861;1865.59188;9.73861
0.0222;9.74685;1237.97988;9.74685
0.0223;9.75262;1061.23686;9.75262
0.0223;9.75677;1238.61031;9.75677
0.0224;9.75695;1097.76474;9.75695
0.0224;9.76481;958.73629;9.76481
0.0225;9.77394;1220.58741;9.77394
0.0225;9.78348;1344.18885;9.78348
0.0226;9.79579;1256.29944;9.79579
0.0226;9.80545;1287.04219;9.80545
0.0227;9.81692;1253.18437;9.81692
0.0227;9.81975;1122.12902;9.81975
0.0228;9.82307;1080.44644;9.82307
0.0228;9.82510;1060.12434;9.82510
0.0228;9.83139;1060.75477;9.83139
0.0229;9.83958;1104.21738;9.83958
0.0229;9.84566;1100.17521;9.84566
0.0230;9.85507;1135.77598;9.85507
0.0230;9.86389;1176.04936;9.86389
0.0231;9.87218;1122.16610;9.87218
0.0231;9.88280;1055.93383;9.88280
0.0232;9.89187;1007.09401;9.89187
0.0232;9.89731;953.54451;9.89731
0.0233;9.89948;930.21859;9.89948
0.0233;9.90039;943.19804;9.90039
0.0234;9.90356;971.71574;9.90356
0.0234;9.91213;1009.35615;9.91213
0.0235;9.92196;1044.25232;9.92196
0.0235;9.93267;1057.38011;9.93267
0.0236;9.94027;1070.39664;9.94027
0.0236;9.94956;1054.96964;9.94956
0.0237;9.95692;1016.29088;9.95692
0.0237;9.96195;986.14147;9.96195
0.0238;9.97062;958.92171;9.97062
0.0238;9.97758;939.71213;9.97758
0.0239;9.98232;957.95753;9.98232
0.0240;9.99024;964.18766;9.99024
0.0240;9.99919;967.15439;9.99919
0.0240;10.00535;963.77974;10.00535
0.0241;10.01306;963.66848;10.01306
0.0241;10.01777;950.98571;10.01777
0.0242;10.02620;937.63542;10.02620
0.0242;10.03231;944.49598;10.03231
0.0243;10.03784;960.40508;10.03784
0.0243;10.04299;968.15567;10.04299
0.0244;10.04553;976.35126;10.04553
0.0244;10.04953;1001.08638;10.04953
0.0245;10.05659;1000.75263;10.05659
0.0245;10.06110;978.05713;10.06110
0.0246;10.06326;966.59813;10.06326
0.0246;10.06789;953.72994;10.06789
0.0247;10.06986;930.66360;10.06986
0.0247;10.07467;913.53073;10.07467
0.0248;10.08008;916.20078;10.08008
0.0248;10.08597;931.33111;10.08597
0.0249;10.08999;939.89755;10.08999
0.0249;10.09535;954.43453;10.09535
0.0250;10.10190;970.78864;10.10190
0.0250;10.10927;979.98551;10.10927
0.0251;10.11260;978.68756;10.11260
0.0252;10.11315;986.36398;10.11315
0.0252;10.11513;985.88189;10.11513
0.0252;10.11977;985.14020;10.11977
0.0254;10.12391;984.25018;10.12391
0.0254;10.12688;986.77190;10.12688
0.0255;10.13053;986.10439;10.13053
0.0255;10.13152;978.79881;10.13152
0.0256;10.13321;978.20547;10.13321
0.0257;10.13735;994.63374;10.13735
0.0258;10.13953;1019.10928;10.13953
0.0258;10.14375;1040.91475;10.14375
0.0259;10.14601;1052.78168;10.14601
0.0259;10.14729;1069.95163;10.14729
0.0260;10.15059;1086.08323;10.15059
0.0260;10.15063;1091.79419;10.15063
0.0261;10.15262;1086.63950;10.15262
0.0262;10.15351;1081.29938;10.15351
0.0262;10.15599;1077.29429;10.15599
0.0264;10.15992;1085.82364;10.15992
0.0264;10.15976;1097.72765;10.15976
0.0265;10.16050;1112.78382;10.16050
0.0265;10.16113;1124.50240;10.16113
0.0266;10.15984;1138.40896;10.15984
0.0266;10.16212;1149.97921;10.16212
0.0267;10.16334;1162.51365;10.16334
0.0267;10.16274;1178.71942;10.16274
0.0268;10.16440;1190.06717;10.16440
0.0268;10.16403;1198.85611;10.16403
0.0269;10.16654;1201.97117;10.16654
0.0270;10.16510;1198.85611;10.16510
0.0271;10.16747;1187.13752;10.16747
0.0271;10.16873;1184.02245;10.16873
0.0272;10.16714;1186.28458;10.16714
0.0272;10.17063;1197.18732;10.17063
0.0273;10.17168;1209.61051;10.17168
0.0273;10.17431;1223.77665;10.17431
0.0274;10.17484;1238.42488;10.17484
0.0274;10.17803;1244.76627;10.17803
0.0275;10.17713;1257.26363;10.17713
0.0275;10.17579;1262.01040;10.17579
0.0276;10.17805;1266.12674;10.17805
0.0276;10.17965;1270.13183;10.17965
0.0277;10.18135;1276.73280;10.18135
0.0278;10.18271;1280.44122;10.18271
0.0278;10.18539;1276.80697;10.18539
0.0279;10.18604;1271.50394;10.18604
0.0280;10.18837;1267.20218;10.18837
0.0280;10.19097;1261.71373;10.19097
0.0281;10.19329;1264.16128;10.19329
0.0281;10.19377;1269.50139;10.19377
0.0282;10.19655;1277.40032;10.19655
0.0282;10.20106;1276.95531;10.20106
0.0283;10.20530;1281.25707;10.20530
0.0283;10.20900;1282.36959;10.20900
0.0284;10.21584;1280.18163;10.21584
0.0284;10.22201;1272.57938;10.22201
0.0285;10.22803;1263.34543;10.22803
0.0285;10.23662;1252.55394;10.23662
0.0286;10.24349;1241.83663;10.24349
0.0286;10.25157;1236.12567;10.25157
0.0287;10.25508;1228.18966;10.25508
0.0287;10.25932;1223.40581;10.25932
0.0288;10.26924;1225.81628;10.26924
0.0288;10.27345;1218.17694;10.27345
0.0288;10.27617;1213.17058;10.27617
0.0289;10.27922;1210.35219;10.27922
0.0289;10.28398;1212.31765;10.28398
0.0290;10.29033;1213.39309;10.29033
0.0291;10.29349;1210.46344;10.29349
0.0291;10.29814;1210.05552;10.29814
0.0292;10.30474;1213.20767;10.30474
0.0292;10.30628;1213.91227;10.30628
0.0293;10.31280;1213.13350;10.31280
0.0293;10.31894;1206.42127;10.31894
0.0294;10.32498;1194.55435;10.32498
0.0294;10.33133;1185.32039;10.33133
0.0295;10.33780;1177.82940;10.33780
0.0295;10.34580;1166.14789;10.34580
0.0296;10.35472;1167.40875;10.35472
0.0296;10.35822;1169.44838;10.35822
0.0297;10.36304;1179.20151;10.36304
0.0297;10.36870;1181.46364;10.36870
0.0298;10.37112;1191.29094;10.37112
0.0298;10.37496;1197.74358;10.37496
0.0299;10.37789;1195.40728;10.37789
0.0299;10.38113;1191.03135;10.38113
0.0300;10.38595;1183.98537;10.38595
0.0300;10.38913;1177.60689;10.38913
0.0300;10.39391;1176.19770;10.39391
0.0301;10.39962;1172.48928;10.39962
0.0301;10.40764;1172.60053;10.40764
0.0302;10.41379;1165.59163;10.41379
0.0302;10.42048;1162.14281;10.42048
0.0303;10.42719;1163.73742;10.42719
0.0303;10.43180;1159.69525;10.43180
0.0304;10.43565;1160.17735;10.43565
0.0304;10.44209;1157.17353;10.44209
0.0305;10.44754;1162.17989;10.44754
0.0305;10.45147;1168.26169;10.45147
0.0306;10.45752;1175.08517;10.45752
0.0306;10.46127;1173.37930;10.46127
0.0307;10.46381;1176.79104;10.46381
0.0307;10.46499;1180.35112;10.46499
0.0308;10.46605;1181.83449;10.46605
0.0308;10.46927;1184.24495;10.46927
0.0309;10.47138;1183.98537;10.47138
0.0309;10.47601;1183.20660;10.47601
0.0310;10.47782;1178.20024;10.47782
0.0310;10.48621;1171.22842;10.48621
0.0311;10.49601;1169.59672;10.49601
0.0311;10.50572;1162.14281;10.50572
