Part protocol
Network name;Part_Maxymos_1_MP-001_2017-03-14_14-44-02_Sila_bl_trans150obr_tepy_038_OK.csv
Protocol version;3.01.00






Result information
Date;2017/03/14
Time;14:44:02
Cycle number;38
Total result;OK
Triggered switch signals
Part serial number;Sila_bl_trans150obr_tepy_038
Measuring program name;BL_rans
Measuring program number;1
Zero X offset;0.000;mm
Tara Y offset;0;N









Process values - curve related
Block X;10.503;mm;XMIN-X;8.940;mm
Block Y;613;N;XMIN-Y;5;N
Ref X;9.194;mm;XMAX-X;10.503;mm
Peak-peak X;1.563;mm;XMAX-Y;613;N
Peak-peak Y;7634;N;YMIN-X;8.940;mm
;;;YMIN-Y;5;N
;;;YMAX-X;9.465;mm
;;;YMAX-Y;7639;N

Process values - EO related;Result;Entry;Exit;XMIN-X;XMIN-Y;XMAX-X;XMAX-Y;YMIN-Y;YMIN-X;YMAX-Y;YMAX-X;Calculated result;NOK cause;Violation X;Violation Y;Ref X;Ref Y;Switch force;Y-Diff;X-Diff;Force deviation ratio;Click ratio;Contact edge
;;;;mm;N;mm;N;N;mm;N;mm;-;-;-;-;-;-;-;-;-;-;-;-;
EO-01;OK;9.168;;;;;;;;;;;;;;;;
EO-02;OK;;;;;;;;;;;-0.2972;;;;;;
EO-03;OK;;;;;;;;;;;;;;;;;
EO-04;None;
EO-05;None;
EO-06;None;
EO-07;None;
EO-08;None;
EO-09;None;
EO-10;None;


















Evaluation objects settings;Reaction;X reference;Y-Reference;XMin;XMax;YMin;YMax;Entry;Exit;Curve part;Catch zone X;Catch zone Y;EO Name;EO description;Re-entry ignored;Generate statistics;X-Hysteresis;Y-Hysteresis;Down sampling rate;Calc limit min;Calc limit max;Grad limit min;Grad limit max;Hyst limit min;Hyst limit max;Speed limit min;Speed limit max;Time limit min;Time limit max;Is curve inside box;GetRef type;CalcInput1 | dx;CalcInput2 | dx;Calc operation;Average limit min;Average limit max;Break max bending;Visualization offset X;Visualization offset Y;-;-;-
EO-01;LINE-X;ABSOLUTE;ABSOLUTE;8.689;9.496;1000;;BELOW;NONE;ANY;+50%;+0%;;;FALSE;TRUE;0.0;0.0;1;;;;;;;;;;;;;;;;;;;0.000;0;;;
EO-02;CALC;ABSOLUTE;ABSOLUTE;7.603;;4166;;NONE;NONE;ANY;+0%;+0%;;;FALSE;TRUE;0.0;0.0;1;-0.360000;-0.280000;;;;;;;;;;;EO-01 | ENTRY;PV_TABLE_CURVE | YMAX-X;Subtraction;;;;0.000;0;;;
EO-03;NO-PASS;ABSOLUTE;ABSOLUTE;7.653;12.250;8743;;NONE;NONE;ANY;+0%;+0%;;;FALSE;TRUE;0.0;0.0;1;;;;;;;;;;;;;;;;;;;0.000;0;;;
EO-04;OFF
EO-05;OFF
EO-06;OFF
EO-07;OFF
EO-08;OFF
EO-09;OFF
EO-10;OFF



















Switch signal settings;Channel;Threshold at;;Trigger from;Reference;Latch until
Type S1;X;9.860;mm;LEFT;ABSOLUTE;None
Type S2;X;11.480;mm;LEFT;ABSOLUTE;None

















Device information
Device type;maXYmos TL
Device type number;5877A0
Device serial number;4915791
Firmware version;1.1.12 (r21150-TL_v1.1.x)
-
-
-
-
-
IP Address;192.168.21.10
Network name;Maxymos 1
Profibus address;10
-
-
-
Station name;Maxymos 1
Company name;ITW WIP PW
Comment;











Channel-X settings
Use the settings from global setup;True
Sensor-X type;Potentiometer
Unit;mm
Used range from;9.000;mm
Used range to;11.000;mm
Decimal places;XXX.XXX
Scaling by;Teach-In
Point 1;-0.380;mm;16.488;%
Point 2;72.105;mm;72.105;%
Invert signal;FALSE
Filter;OFF
Test point;0.000;mm
Tolerance;0.010;mm
Enable sensor test by dig-input;FALSE
Zoom from;0.000;mm
Zoom to;25.000;mm
Master Measurement Enable;FALSE
Master Measurement Nominal Position;0.000;mm
Encoder interpolation factor;-
Encoder electrical interface;-
Encoder referencing type;-
Encoder referencing edge;-
Encoder pulses per minute;-
Encoder use every nth-mark;-
Reference;-
Encoder reference points;-
Encoder coding;-
Encoder width;-
Encoder optimization;-
Encoder clock frequency;-
Termination resistor;-








Channel-Y settings
Use the settings from global setup;True
Sensor-Y type;Piezo
Unit;N
Used range from;0;N
Used range to;190000;N
Decimal places;XXXXXX
Scaling by;Calibration Sheet
Sensitivity;-4.3000;pC/N
-
Invert signal;FALSE
Filter;OFF
Piezo reset;TRUE
Test point;0;N
Tolerance;0;N
Enable sensor test by dig-input;FALSE
Zoom from;0;N
Zoom to;1000;N












Cycle control settings
Use the settings from global setup;True
Measuring function;Y (X, t)
Delta-X;User-Defined;0.0001;mm
START condition;Threshold-X;8.700;mm;Trigger from;LEFT
STOP condition;Threshold-X;10.500;mm;Trigger from;LEFT
Cycle time out;0.10;s
Turning point RIGHT;NONE
Turning point LEFT;NONE
Cut curve at;NONE










Evaluation settings
Capture only first NOK-EO for statistics;False
Hysteresis X;0.0;%
Hysteresis Y;0.0;%






Trigger Y settings
Threshold at;1608;N
Value X at TRIGGER Y;0.000;mm
Approach from;BELOW






Block settings
Value X at block;XMAX
Block at;0.000;mm







Measuring curve
Number of measuring points;153
Ref. Graph on;ABSOLUTE
Curve segments;0;153;


Time;X(ABSOLUTE);Y;X (ABSOLUTE)


s;mm;N;mm
0.0000;8.94020;4.93219;8.94020
0.0001;8.95614;9.01145;8.95614
0.0003;8.97050;22.80675;8.97050
0.0004;8.97788;33.89490;8.97788
0.0006;8.99180;47.17103;8.99180
0.0007;9.00398;60.37298;9.00398
0.0009;9.01748;61.30008;9.01748
0.0010;9.03131;66.52895;9.03131
0.0012;9.04358;76.72709;9.04358
0.0013;9.05619;81.69636;9.05619
0.0014;9.06627;80.65801;9.06627
0.0016;9.08137;80.95468;9.08137
0.0017;9.08765;83.58765;9.08765
0.0019;9.09772;88.63110;9.09772
0.0020;9.11017;101.98139;9.11017
0.0022;9.12595;120.82013;9.12595
0.0023;9.14010;138.36093;9.14010
0.0024;9.14904;319.77655;9.14904
0.0026;9.15702;690.91463;9.15702
0.0027;9.17049;1085.71239;9.17049
0.0029;9.18199;1358.72584;9.18199
0.0030;9.19089;1597.84438;9.19089
0.0032;9.19496;1847.23523;9.19496
0.0033;9.20443;2094.80895;9.20443
0.0035;9.21137;2325.50939;9.21137
0.0036;9.21641;2554.76355;9.21641
0.0037;9.22931;2786.39109;9.22931
0.0039;9.23432;3014.19897;9.23432
0.0040;9.24030;3240.15264;9.24030
0.0042;9.24147;3460.43244;9.24147
0.0043;9.24537;3640.69845;9.24537
0.0045;9.24559;3790.37004;9.24559
0.0046;9.25032;3919.97911;9.25032
0.0048;9.25201;4049.32860;9.25201
0.0049;9.25831;4173.11546;9.25831
0.0050;9.26094;4292.41514;9.26094
0.0052;9.26247;4404.00132;9.26247
0.0053;9.26851;4514.91998;9.26851
0.0055;9.26998;4636.40763;9.26998
0.0056;9.27475;4759.48989;9.27475
0.0058;9.28042;4890.28566;9.28042
0.0059;9.28394;5013.81293;9.28394
0.0060;9.28992;5149.46672;9.28992
0.0062;9.29376;5282.37628;9.29376
0.0063;9.30138;5419.29093;9.30138
0.0065;9.30973;5563.91908;9.30973
0.0066;9.31322;5717.96660;9.31322
0.0068;9.31927;5869.01030;9.31927
0.0069;9.32562;6027.35959;9.32562
0.0071;9.32821;6182.48255;9.32821
0.0072;9.33154;6342.94562;9.33154
0.0073;9.33639;6501.44324;9.33639
0.0075;9.34312;6655.93577;9.34312
0.0076;9.35832;6810.20580;9.35832
0.0078;9.37164;6955.90939;9.37164
0.0079;9.38170;7099.94419;9.38170
0.0081;9.39086;7228.81158;9.39086
0.0082;9.39906;7335.98475;9.39906
0.0084;9.40413;7429.36262;9.40413
0.0085;9.41514;7498.19078;9.41514
0.0086;9.42157;7550.47942;9.42157
0.0088;9.43042;7589.38068;9.43042
0.0089;9.44283;7614.18997;9.44283
0.0091;9.45124;7627.83694;9.45124
0.0092;9.46190;7634.36375;9.46190
0.0093;9.46472;7638.88801;9.46472
0.0094;9.47344;7638.55425;9.47344
0.0095;9.48179;7634.99418;9.48179
0.0096;9.49034;7628.24486;9.49034
0.0098;9.50369;7619.71551;9.50369
0.0099;9.51311;7605.99438;9.51311
0.0101;9.51717;7589.86278;9.51717
0.0102;9.53171;7570.98695;9.53171
0.0104;9.54473;7537.90790;9.54473
0.0105;9.55442;7498.93246;9.55442
0.0107;9.56048;7442.04539;9.56048
0.0108;9.57270;7374.66351;9.57270
0.0109;9.57987;7295.48887;9.57987
0.0111;9.58596;7209.34241;9.58596
0.0112;9.59468;7106.69351;9.59468
0.0114;9.61289;6994.51398;9.61289
0.0115;9.63002;6861.04816;9.63002
0.0117;9.64772;6703.92265;9.64772
0.0118;9.66172;6522.32161;9.66172
0.0120;9.67316;6219.38127;9.67316
0.0121;9.68157;4962.48848;9.68157
0.0122;9.69168;3641.18054;9.69168
0.0124;9.70398;2914.25721;9.70398
0.0125;9.72546;2202.68672;9.72546
0.0127;9.74892;746.87460;9.74892
0.0128;9.76871;384.93338;9.76871
0.0130;9.79330;698.07187;9.79330
0.0131;9.81797;730.03840;9.81797
0.0132;9.82878;531.37865;9.82878
0.0134;9.86191;596.16465;9.86191
0.0135;9.88847;652.16170;9.88847
0.0137;9.89576;453.65030;9.89576
0.0138;9.91452;440.52251;9.91452
0.0140;9.94710;585.26191;9.94710
0.0141;9.96553;545.35938;9.96553
0.0143;9.98174;391.68270;9.98174
0.0144;9.99843;401.95500;9.99843
0.0145;10.02174;429.73102;10.02174
0.0147;10.03762;389.23514;10.03762
0.0148;10.05050;430.21312;10.05050
0.0150;10.06493;461.54922;10.06493
0.0151;10.07964;378.36949;10.07964
0.0153;10.09190;345.51294;10.09190
0.0154;10.10674;431.36273;10.10674
0.0156;10.11794;473.30489;10.11794
0.0157;10.12069;453.16820;10.12069
0.0158;10.12788;453.79863;10.12788
0.0160;10.13129;436.62867;10.13129
0.0161;10.13570;422.87046;10.13570
0.0163;10.14291;481.57465;10.14291
0.0164;10.15112;545.32229;10.15112
0.0166;10.15174;525.11143;10.15174
0.0167;10.15621;507.08854;10.15621
0.0168;10.15971;537.68296;10.15971
0.0170;10.16190;568.42571;10.16190
0.0171;10.16373;615.96758;10.16373
0.0173;10.16574;678.45436;10.16574
0.0174;10.16552;679.90064;10.16552
0.0176;10.17105;648.82413;10.17105
0.0177;10.17693;671.92755;10.17693
0.0179;10.18028;717.09603;10.18028
0.0180;10.18094;724.25327;10.18094
0.0181;10.18420;727.07167;10.18420
0.0183;10.18763;720.43360;10.18763
0.0184;10.19262;695.21639;10.19262
0.0186;10.20137;682.97862;10.20137
0.0187;10.21267;708.41834;10.21267
0.0189;10.22924;714.98224;10.22924
0.0190;10.25234;680.19731;10.25234
0.0192;10.26422;659.05935;10.26422
0.0193;10.28169;653.45965;10.28169
0.0194;10.29125;652.16170;10.29125
0.0196;10.29964;652.53254;10.29964
0.0197;10.31513;653.42256;10.31513
0.0199;10.33202;620.04684;10.33202
0.0200;10.34893;601.61602;10.34893
0.0202;10.36762;616.85760;10.36762
0.0203;10.37603;637.29096;10.37603
0.0204;10.38343;627.05574;10.38343
0.0206;10.39575;616.93177;10.39575
0.0207;10.41085;606.77071;10.41085
0.0209;10.43166;614.66964;10.43166
0.0210;10.44545;625.53529;10.44545
0.0212;10.45509;637.88431;10.45509
0.0213;10.46394;643.11317;10.46394
0.0215;10.47313;630.80124;10.47313
0.0216;10.49391;615.70799;10.49391
0.0216;10.50304;612.77834;10.50304
