Part protocol
Network name;Part_Maxymos_1_MP-001_2017-03-14_14-22-53_Sila_bl_trans150obr_tepy_025_NOK.csv
Protocol version;3.01.00






Result information
Date;2017/03/14
Time;14:22:53
Cycle number;25
Total result;NOK
Triggered switch signals
Part serial number;Sila_bl_trans150obr_tepy_025
Measuring program name;BL_rans
Measuring program number;1
Zero X offset;0.000;mm
Tara Y offset;0;N









Process values - curve related
Block X;10.504;mm;XMIN-X;8.155;mm
Block Y;1140;N;XMIN-Y;0;N
Ref X;9.089;mm;XMAX-X;10.504;mm
Peak-peak X;2.349;mm;XMAX-Y;1140;N
Peak-peak Y;8329;N;YMIN-X;8.155;mm
;;;YMIN-Y;0;N
;;;YMAX-X;9.462;mm
;;;YMAX-Y;8327;N

Process values - EO related;Result;Entry;Exit;XMIN-X;XMIN-Y;XMAX-X;XMAX-Y;YMIN-Y;YMIN-X;YMAX-Y;YMAX-X;Calculated result;NOK cause;Violation X;Violation Y;Ref X;Ref Y;Switch force;Y-Diff;X-Diff;Force deviation ratio;Click ratio;Contact edge
;;;;mm;N;mm;N;N;mm;N;mm;-;-;-;-;-;-;-;-;-;-;-;-;
EO-01;OK;9.056;;;;;;;;;;;;;;;;
EO-02;NOK;;;;;;;;;;;-0.4061;;;;;;
EO-03;OK;;;;;;;;;;;;;;;;;
EO-04;None;
EO-05;None;
EO-06;None;
EO-07;None;
EO-08;None;
EO-09;None;
EO-10;None;


















Evaluation objects settings;Reaction;X reference;Y-Reference;XMin;XMax;YMin;YMax;Entry;Exit;Curve part;Catch zone X;Catch zone Y;EO Name;EO description;Re-entry ignored;Generate statistics;X-Hysteresis;Y-Hysteresis;Down sampling rate;Calc limit min;Calc limit max;Grad limit min;Grad limit max;Hyst limit min;Hyst limit max;Speed limit min;Speed limit max;Time limit min;Time limit max;Is curve inside box;GetRef type;CalcInput1 | dx;CalcInput2 | dx;Calc operation;Average limit min;Average limit max;Break max bending;Visualization offset X;Visualization offset Y;-;-;-
EO-01;LINE-X;ABSOLUTE;ABSOLUTE;8.689;9.496;1000;;BELOW;NONE;ANY;+50%;+0%;;;FALSE;TRUE;0.0;0.0;1;;;;;;;;;;;;;;;;;;;0.000;0;;;
EO-02;CALC;ABSOLUTE;ABSOLUTE;7.603;;4166;;NONE;NONE;ANY;+0%;+0%;;;FALSE;TRUE;0.0;0.0;1;-0.360000;-0.280000;;;;;;;;;;;EO-01 | ENTRY;PV_TABLE_CURVE | YMAX-X;Subtraction;;;;0.000;0;;;
EO-03;NO-PASS;ABSOLUTE;ABSOLUTE;7.653;12.250;8743;;NONE;NONE;ANY;+0%;+0%;;;FALSE;TRUE;0.0;0.0;1;;;;;;;;;;;;;;;;;;;0.000;0;;;
EO-04;OFF
EO-05;OFF
EO-06;OFF
EO-07;OFF
EO-08;OFF
EO-09;OFF
EO-10;OFF



















Switch signal settings;Channel;Threshold at;;Trigger from;Reference;Latch until
Type S1;X;9.860;mm;LEFT;ABSOLUTE;None
Type S2;X;11.480;mm;LEFT;ABSOLUTE;None

















Device information
Device type;maXYmos TL
Device type number;5877A0
Device serial number;4915791
Firmware version;1.1.12 (r21150-TL_v1.1.x)
-
-
-
-
-
IP Address;192.168.21.10
Network name;Maxymos 1
Profibus address;10
-
-
-
Station name;Maxymos 1
Company name;ITW WIP PW
Comment;











Channel-X settings
Use the settings from global setup;True
Sensor-X type;Potentiometer
Unit;mm
Used range from;8.000;mm
Used range to;12.000;mm
Decimal places;XXX.XXX
Scaling by;Teach-In
Point 1;-0.380;mm;16.488;%
Point 2;72.105;mm;72.105;%
Invert signal;FALSE
Filter;OFF
Test point;0.000;mm
Tolerance;0.010;mm
Enable sensor test by dig-input;FALSE
Zoom from;0.000;mm
Zoom to;25.000;mm
Master Measurement Enable;FALSE
Master Measurement Nominal Position;0.000;mm
Encoder interpolation factor;-
Encoder electrical interface;-
Encoder referencing type;-
Encoder referencing edge;-
Encoder pulses per minute;-
Encoder use every nth-mark;-
Reference;-
Encoder reference points;-
Encoder coding;-
Encoder width;-
Encoder optimization;-
Encoder clock frequency;-
Termination resistor;-








Channel-Y settings
Use the settings from global setup;True
Sensor-Y type;Piezo
Unit;N
Used range from;0;N
Used range to;190000;N
Decimal places;XXXXXX
Scaling by;Calibration Sheet
Sensitivity;-4.3000;pC/N
-
Invert signal;FALSE
Filter;OFF
Piezo reset;TRUE
Test point;0;N
Tolerance;0;N
Enable sensor test by dig-input;FALSE
Zoom from;0;N
Zoom to;1000;N












Cycle control settings
Use the settings from global setup;True
Measuring function;Y (X)
Delta-X;User-Defined;0.00100;mm
START condition;Threshold-X;8.000;mm;Trigger from;LEFT
STOP condition;Threshold-X;10.500;mm;Trigger from;LEFT
Cycle time out;0.25;s
Turning point RIGHT;NONE
Turning point LEFT;NONE
Cut curve at;NONE










Evaluation settings
Capture only first NOK-EO for statistics;False
Hysteresis X;0.0;%
Hysteresis Y;0.0;%






Trigger Y settings
Threshold at;1608;N
Value X at TRIGGER Y;0.000;mm
Approach from;BELOW






Block settings
Value X at block;XMAX
Block at;0.000;mm







Measuring curve
Number of measuring points;640
Ref. Graph on;ABSOLUTE
Curve segments;0;0;


Time;X(ABSOLUTE);Y;X (ABSOLUTE)


s;mm;N;mm
0.0000;8.15526;-2.44755;8.15526
0.0001;8.17516;0.74168;8.17516
0.0002;8.18573;-0.51918;8.18573
0.0002;8.18756;2.44755;8.18756
0.0003;8.19480;1.63170;8.19480
0.0003;8.19641;2.55881;8.19641
0.0004;8.19768;4.33884;8.19768
0.0004;8.19938;4.30176;8.19938
0.0005;8.20256;8.12143;8.20256
0.0005;8.20984;6.26722;8.20984
0.0006;8.21213;10.45773;8.21213
0.0006;8.21489;11.42192;8.21489
0.0007;8.22021;11.42192;8.22021
0.0007;8.22477;15.20450;8.22477
0.0008;8.22949;15.05616;8.22949
0.0008;8.23594;16.16869;8.23594
0.0009;8.24243;17.42955;8.24243
0.0009;8.24806;20.35919;8.24806
0.0010;8.25342;20.84129;8.25342
0.0010;8.25580;23.47426;8.25580
0.0011;8.25987;24.21594;8.25987
0.0011;8.26360;25.40264;8.26360
0.0012;8.26946;27.33101;8.26946
0.0012;8.27236;29.74148;8.27236
0.0012;8.27858;30.59442;8.27858
0.0013;8.28004;33.44990;8.28004
0.0014;8.28134;34.89618;8.28134
0.0015;8.28481;34.26575;8.28481
0.0015;8.28600;36.30537;8.28600
0.0016;8.29011;40.08796;8.29011
0.0016;8.29231;41.86800;8.29231
0.0017;8.29812;40.19921;8.29812
0.0017;8.30438;40.64422;8.30438
0.0018;8.31109;41.64549;8.31109
0.0018;8.31954;44.01888;8.31954
0.0019;8.32600;43.20302;8.32600
0.0019;8.33479;42.42426;8.33479
0.0020;8.33704;42.16467;8.33704
0.0020;8.34343;43.90762;8.34343
0.0021;8.34580;47.46770;8.34580
0.0021;8.34997;47.35645;8.34997
0.0022;8.35206;52.32572;8.35206
0.0022;8.35377;52.65948;8.35377
0.0023;8.35769;158.68304;8.35769
0.0023;8.36278;433.06860;8.36278
0.0024;8.36580;183.90025;8.36580
0.0024;8.37332;53.43825;8.37332
0.0024;8.37656;205.29780;8.37656
0.0025;8.37992;120.48637;8.37992
0.0025;8.38551;76.80126;8.38551
0.0026;8.38975;83.29098;8.38975
0.0026;8.39352;-0.55626;8.39352
0.0027;8.39812;68.53149;8.39812
0.0027;8.40167;86.73981;8.40167
0.0028;8.40486;81.02885;8.40486
0.0028;8.40630;163.61523;8.40630
0.0029;8.41128;127.16152;8.41128
0.0029;8.41385;95.89959;8.41385
0.0030;8.41889;144.25731;8.41889
0.0030;8.42270;77.80253;8.42270
0.0031;8.42566;95.75125;8.42566
0.0031;8.42835;105.61563;8.42835
0.0032;8.43162;51.39862;8.43162
0.0032;8.43548;134.76377;8.43548
0.0033;8.44100;122.37766;8.44100
0.0033;8.44470;137.69342;8.44470
0.0034;8.44972;168.54742;8.44972
0.0034;8.45085;91.56074;8.45085
0.0035;8.45500;127.68070;8.45500
0.0035;8.45825;105.35604;8.45825
0.0036;8.46070;79.91632;8.46070
0.0036;8.45988;124.49146;8.45988
0.0036;8.46279;95.97376;8.46279
0.0037;8.46917;114.51583;8.46917
0.0037;8.47808;215.12510;8.47808
0.0038;8.47972;647.11826;8.47972
0.0038;8.48375;392.16479;8.48375
0.0039;8.48831;123.23060;8.48831
0.0039;8.49151;285.73331;8.49151
0.0040;8.49505;239.30396;8.49505
0.0040;8.50141;107.80360;8.50141
0.0041;8.50658;148.11406;8.50658
0.0041;8.50884;43.20302;8.50884
0.0042;8.51001;78.76672;8.51001
0.0042;8.51412;154.04752;8.51412
0.0043;8.52044;134.20751;8.52044
0.0043;8.52875;227.84496;8.52875
0.0044;8.53498;243.30905;8.53498
0.0044;8.54021;137.73050;8.54021
0.0045;8.54231;226.58410;8.54231
0.0045;8.54593;323.48496;8.54593
0.0046;8.55003;650.60417;8.55003
0.0046;8.55535;321.51950;8.55535
0.0047;8.55902;52.36281;8.55902
0.0047;8.56454;380.03828;8.56454
0.0048;8.57115;241.60318;8.57115
0.0048;8.57433;175.00006;8.57433
0.0048;8.57759;266.41247;8.57759
0.0049;8.57814;42.60968;8.57814
0.0049;8.57986;168.47325;8.57986
0.0050;8.58272;208.33870;8.58272
0.0050;8.58542;458.80499;8.58542
0.0051;8.58881;677.71267;8.58881
0.0051;8.59126;222.24526;8.59126
0.0052;8.59501;210.15583;8.59501
0.0052;8.59651;439.22456;8.59651
0.0053;8.60238;132.57580;8.60238
0.0053;8.60748;208.33870;8.60748
0.0054;8.61247;293.74348;8.61247
0.0054;8.61830;424.05715;8.61830
0.0055;8.62236;388.64180;8.62236
0.0055;8.62821;178.30055;8.62821
0.0056;8.63284;380.48329;8.63284
0.0056;8.63911;442.48797;8.63911
0.0057;8.64175;303.75620;8.64175
0.0057;8.64263;622.19772;8.64263
0.0058;8.64773;239.67480;8.64773
0.0058;8.64970;68.90233;8.64970
0.0059;8.65289;416.71449;8.65289
0.0059;8.65715;370.43348;8.65715
0.0060;8.66110;493.81242;8.66110
0.0060;8.66419;351.59474;8.66419
0.0060;8.66867;143.36729;8.66867
0.0061;8.67067;633.32296;8.67067
0.0061;8.67353;497.37250;8.67353
0.0062;8.67774;228.43831;8.67774
0.0062;8.68263;390.23641;8.68263
0.0063;8.68524;368.20843;8.68524
0.0063;8.68854;472.93405;8.68854
0.0064;8.69379;372.69562;8.69379
0.0064;8.69596;293.55806;8.69596
0.0065;8.69918;624.64527;8.69918
0.0065;8.70279;389.34640;8.70279
0.0066;8.70674;263.59407;8.70674
0.0066;8.70840;517.17543;8.70840
0.0067;8.71261;474.67700;8.71261
0.0067;8.71773;432.92026;8.71773
0.0068;8.72119;380.33495;8.72119
0.0068;8.72698;407.99972;8.72698
0.0069;8.73261;534.12288;8.73261
0.0069;8.73591;334.61020;8.73591
0.0070;8.73798;419.12496;8.73798
0.0070;8.74426;551.77493;8.74426
0.0071;8.74675;392.53563;8.74675
0.0071;8.74964;458.10039;8.74964
0.0072;8.75449;482.09383;8.75449
0.0072;8.75604;501.60009;8.75604
0.0072;8.75955;520.29050;8.75955
0.0073;8.76267;393.27731;8.76267
0.0073;8.76897;481.57465;8.76897
0.0074;8.77270;479.60919;8.77270
0.0074;8.77824;371.69434;8.77824
0.0075;8.78152;501.74843;8.78152
0.0075;8.78526;518.17670;8.78526
0.0076;8.78673;468.44687;8.78673
0.0076;8.79002;481.42632;8.79002
0.0077;8.79317;482.01966;8.79317
0.0077;8.79616;543.76476;8.79616
0.0078;8.79895;458.58249;8.79895
0.0078;8.80053;454.46615;8.80053
0.0079;8.80493;538.31339;8.80493
0.0079;8.80842;454.68865;8.80842
0.0080;8.81068;490.06692;8.81068
0.0080;8.81643;553.66622;8.81643
0.0081;8.82619;514.28287;8.82619
0.0081;8.83683;537.01544;8.83683
0.0082;8.83858;503.15762;8.83858
0.0082;8.84169;495.18453;8.84169
0.0083;8.84591;529.04235;8.84591
0.0083;8.85293;489.88150;8.85293
0.0084;8.85627;515.69206;8.85627
0.0084;8.86063;519.84549;8.86063
0.0084;8.86452;510.61154;8.86452
0.0085;8.86517;537.60879;8.86517
0.0085;8.87036;530.34030;8.87036
0.0086;8.87237;563.93853;8.87237
0.0086;8.87474;551.62660;8.87474
0.0087;8.87815;515.54373;8.87815
0.0087;8.88256;562.60350;8.88256
0.0088;8.88475;539.79675;8.88475
0.0088;8.88803;529.45028;8.88803
0.0089;8.89319;561.75057;8.89319
0.0089;8.89690;543.02307;8.89690
0.0090;8.90363;559.56260;8.90363
0.0090;8.90653;546.50898;8.90653
0.0091;8.91066;555.29793;8.91066
0.0091;8.91445;580.25555;8.91445
0.0092;8.91757;548.54861;8.91757
0.0092;8.92351;548.95654;8.92351
0.0093;8.92836;564.27229;8.92836
0.0093;8.93596;557.15213;8.93596
0.0094;8.93889;567.31319;8.93889
0.0094;8.94444;567.98070;8.94444
0.0095;8.94463;591.19537;8.94463
0.0095;8.94947;580.66348;8.94947
0.0096;8.95681;569.27865;8.95681
0.0096;8.96218;602.06103;8.96218
0.0096;8.96830;584.33481;8.96830
0.0097;8.97312;575.06377;8.97312
0.0097;8.97529;587.04195;8.97529
0.0098;8.97755;580.96015;8.97755
0.0098;8.98081;590.63911;8.98081
0.0099;8.98446;586.22610;8.98446
0.0099;8.98765;599.39097;8.98765
0.0100;8.99033;609.21827;8.99033
0.0100;8.99447;591.82580;8.99447
0.0101;8.99762;604.95359;8.99762
0.0101;9.00150;613.81670;9.00150
0.0102;9.00858;606.95613;9.00858
0.0102;9.01033;614.59547;9.01033
0.0103;9.01584;611.70290;9.01584
0.0103;9.02156;621.71562;9.02156
0.0104;9.02812;651.27168;9.02812
0.0104;9.03253;706.04496;9.03253
0.0105;9.03746;774.02019;9.03746
0.0105;9.04332;833.24356;9.04332
0.0106;9.05080;904.51928;9.05080
0.0106;9.05569;993.33580;9.05569
0.0107;9.05587;1051.59498;9.05587
0.0107;9.05925;1132.95759;9.05925
0.0108;9.06127;1201.71159;9.06127
0.0108;9.06462;1261.52830;9.06462
0.0108;9.07129;1339.07124;9.07129
0.0109;9.07526;1395.92123;9.07526
0.0109;9.07523;1474.91045;9.07523
0.0110;9.07877;1553.00965;9.07877
0.0110;9.08264;1602.22031;9.08264
0.0111;9.08894;1681.20953;9.08894
0.0111;9.08926;1732.86774;9.08926
0.0112;9.09041;1784.82262;9.09041
0.0112;9.09308;1841.78386;9.09308
0.0113;9.09549;1879.09050;9.09549
0.0113;9.09582;1938.57346;9.09582
0.0114;9.09969;1989.26749;9.09969
0.0114;9.10220;2031.28382;9.10220
0.0115;9.10681;2081.27324;9.10681
0.0115;9.10983;2120.95327;9.10983
0.0116;9.11338;2159.92870;9.11338
0.0116;9.11904;2201.09210;9.11904
0.0117;9.12224;2235.98827;9.12224
0.0117;9.12517;2273.96243;9.12517
0.0118;9.12879;2315.57084;9.12879
0.0118;9.13393;2345.94275;9.13393
0.0119;9.13566;2381.95145;9.13566
0.0119;9.14099;2419.66602;9.14099
0.0120;9.14225;2442.62111;9.14225
0.0120;9.14572;2480.63235;9.14572
0.0120;9.14774;2508.89047;9.14774
0.0121;9.14667;2537.37109;9.14667
0.0121;9.14869;2572.34143;9.14869
0.0122;9.15013;2592.25562;9.15013
0.0122;9.15273;2628.11598;9.15273
0.0123;9.15249;2656.93036;9.15249
0.0123;9.15370;2685.44806;9.15370
0.0124;9.15779;2715.41205;9.15779
0.0124;9.15670;2739.81341;9.15670
0.0125;9.15891;2765.84648;9.15891
0.0125;9.16115;2790.13659;9.16115
0.0126;9.16372;2818.02387;9.16372
0.0126;9.16748;2844.39069;9.16748
0.0127;9.17272;2880.25105;9.17272
0.0127;9.17325;2902.57571;9.17325
0.0128;9.17586;2927.05124;9.17586
0.0128;9.17566;2960.38988;9.17566
0.0129;9.17753;2990.65054;9.17753
0.0129;9.18072;3019.05699;9.18072
0.0130;9.18162;3053.99025;9.18162
0.0130;9.18351;3093.37361;9.18351
0.0131;9.18389;3127.00893;9.18389
0.0131;9.18547;3165.13142;9.18547
0.0132;9.18721;3210.29991;9.18721
0.0132;9.18859;3251.72289;9.18859
0.0132;9.19045;3292.66378;9.19045
0.0133;9.18993;3337.16475;9.18993
0.0133;9.19098;3376.88187;9.19098
0.0134;9.19364;3421.75368;9.19364
0.0134;9.19689;3461.84164;9.19689
0.0135;9.19731;3503.37587;9.19731
0.0135;9.20078;3546.43056;9.20078
0.0136;9.20236;3584.81265;9.20236
0.0136;9.20379;3631.01949;9.20379
0.0137;9.20707;3675.00128;9.20707
0.0137;9.20750;3725.28737;9.20750
0.0138;9.20990;3778.57728;9.20990
0.0138;9.21177;3831.42218;9.21177
0.0139;9.21370;3886.45505;9.21370
0.0139;9.21539;3941.89584;9.21539
0.0140;9.21803;4000.89671;9.21803
0.0140;9.21920;4061.75178;9.21920
0.0141;9.22281;4129.39326;9.22281
0.0141;9.22692;4203.85821;9.22692
0.0142;9.22948;4287.37170;9.22948
0.0142;9.23365;4377.59741;9.23365
0.0143;9.23449;4463.41011;9.23449
0.0143;9.23582;4559.94013;9.23582
0.0144;9.23842;4654.46761;9.23842
0.0144;9.23905;4748.32757;9.23905
0.0144;9.23807;4834.69653;9.23807
0.0145;9.24144;4915.87372;9.24144
0.0145;9.24249;4994.75168;9.24249
0.0146;9.24324;5060.68729;9.24324
0.0146;9.24553;5126.02954;9.24553
0.0147;9.24728;5187.47796;9.24728
0.0147;9.25005;5249.70515;9.25005
0.0148;9.25046;5308.59477;9.25046
0.0148;9.25591;5364.07264;9.25591
0.0149;9.26045;5425.18731;9.26045
0.0149;9.26268;5479.99767;9.26268
0.0150;9.26287;5536.66223;9.26287
0.0150;9.26292;5587.46751;9.26292
0.0151;9.26492;5637.19734;9.26492
0.0151;9.26485;5686.29674;9.26485
0.0152;9.26750;5732.83734;9.26750
0.0152;9.27171;5777.37539;9.27171
0.0153;9.27382;5826.88272;9.27382
0.0153;9.27584;5873.64582;9.27584
0.0154;9.27994;5918.48055;9.27994
0.0154;9.28271;5969.47124;9.28271
0.0155;9.28413;6009.48503;9.28413
0.0155;9.28805;6052.72514;9.28805
0.0156;9.28968;6094.96397;9.28968
0.0156;9.29439;6132.19645;9.29439
0.0156;9.29552;6174.17570;9.29552
0.0157;9.29648;6215.37618;9.29648
0.0157;9.30276;6249.30817;9.30276
0.0158;9.30412;6289.28487;9.30412
0.0158;9.30690;6329.26158;9.30690
0.0159;9.30983;6364.15775;9.30983
0.0159;9.31257;6402.31733;9.31257
0.0160;9.31279;6440.92192;9.31279
0.0160;9.31499;6478.89609;9.31499
0.0161;9.31810;6517.24109;9.31810
0.0161;9.32010;6553.02728;9.32010
0.0162;9.32262;6591.85438;9.32262
0.0162;9.32296;6629.45770;9.32296
0.0163;9.32497;6668.80397;9.32497
0.0163;9.32658;6703.92265;9.32658
0.0164;9.32549;6741.45180;9.32549
0.0164;9.32664;6777.05258;9.32664
0.0165;9.32900;6815.24924;9.32900
0.0165;9.32828;6849.66333;9.32828
0.0166;9.33030;6887.78582;9.33030
0.0166;9.33125;6925.87124;9.33125
0.0167;9.33104;6960.80450;9.33104
0.0167;9.33464;6994.73648;9.33464
0.0168;9.33261;7031.11603;9.33261
0.0168;9.33460;7067.38432;9.33460
0.0168;9.33589;7102.83676;9.33589
0.0169;9.33656;7137.65876;9.33656
0.0169;9.33813;7176.74545;9.33813
0.0170;9.34071;7213.08791;9.34071
0.0170;9.34139;7250.32038;9.34139
0.0171;9.34335;7288.62830;9.34335
0.0171;9.34584;7323.04238;9.34584
0.0172;9.34559;7360.08944;9.34559
0.0172;9.35075;7393.76184;9.35075
0.0173;9.35324;7428.28718;9.35324
0.0173;9.35752;7470.71143;9.35752
0.0174;9.36005;7511.72649;9.36005
0.0174;9.36345;7547.84645;9.36345
0.0175;9.36791;7582.96513;9.36791
0.0175;9.37141;7623.34976;9.37141
0.0176;9.37433;7659.87764;9.37433
0.0176;9.37503;7700.22518;9.37503
0.0177;9.37696;7740.12772;9.37696
0.0177;9.37989;7776.32184;9.37989
0.0178;9.38549;7810.40216;9.38549
0.0178;9.38717;7843.07329;9.38717
0.0179;9.38569;7877.33904;9.38569
0.0179;9.38960;7913.64441;9.38960
0.0180;9.39298;7948.05849;9.39298
0.0180;9.39520;7985.66181;9.39520
0.0180;9.39516;8016.03372;9.39516
0.0181;9.39811;8043.40182;9.39811
0.0181;9.40109;8068.13694;9.40109
0.0182;9.40492;8093.72500;9.40492
0.0182;9.40740;8120.68517;9.40740
0.0183;9.41028;8142.82440;9.41028
0.0183;9.41121;8164.55571;9.41121
0.0184;9.41310;8186.73203;9.41310
0.0184;9.41668;8208.94543;9.41668
0.0185;9.41725;8224.18701;9.41725
0.0185;9.42182;8240.13319;9.42182
0.0186;9.42806;8253.11264;9.42806
0.0186;9.42993;8263.68162;9.42993
0.0187;9.43086;8277.21733;9.43086
0.0187;9.43231;8284.41165;9.43231
0.0188;9.43313;8295.94482;9.43313
0.0188;9.43442;8302.65705;9.43442
0.0189;9.43788;8305.92045;9.43788
0.0189;9.43964;8312.26184;9.43964
0.0190;9.44433;8315.15440;9.44433
0.0190;9.45058;8317.78738;9.45058
0.0191;9.45216;8320.16076;9.45216
0.0191;9.45318;8323.64667;9.45318
0.0192;9.45526;8326.24256;9.45526
0.0192;9.46182;8326.72466;9.46182
0.0192;9.46684;8325.42671;9.46684
0.0193;9.47144;8326.24256;9.47144
0.0193;9.47968;8324.20294;9.47968
0.0194;9.48127;8319.41908;9.48127
0.0194;9.48689;8310.77848;9.48689
0.0195;9.49016;8306.32838;9.49016
0.0195;9.49305;8298.91155;9.49305
0.0196;9.49410;8283.81831;9.49410
0.0196;9.50455;8273.17516;9.50455
0.0197;9.51169;8257.63690;9.51169
0.0197;9.51624;8235.53475;9.51624
0.0198;9.51983;8216.21392;9.51983
0.0198;9.52363;8195.81764;9.52363
0.0199;9.52787;8173.56716;9.52787
0.0199;9.53327;8151.79876;9.53327
0.0200;9.53795;8133.99838;9.53795
0.0200;9.54306;8107.11237;9.54306
0.0201;9.55022;8081.37598;9.55022
0.0201;9.55345;8055.34291;9.55345
0.0202;9.55638;8023.78431;9.55638
0.0202;9.55837;7995.97120;9.55837
0.0203;9.55888;7965.74763;9.55888
0.0203;9.56098;7931.44480;9.56098
0.0204;9.56388;7896.80821;9.56388
0.0204;9.57064;7859.05656;9.57064
0.0204;9.57446;7825.79208;9.57446
0.0205;9.57673;7786.66831;9.57673
0.0205;9.57764;7744.94865;9.57764
0.0206;9.58258;7704.00776;9.58258
0.0206;9.58106;7662.80728;9.58106
0.0207;9.58161;7619.15925;9.58161
0.0207;9.58513;7575.32579;9.58513
0.0208;9.58724;7526.11514;9.58724
0.0208;9.59124;7483.35712;9.59124
0.0209;9.59514;7439.70909;9.59514
0.0209;9.60217;7389.31174;9.60217
0.0210;9.61031;7340.24943;9.61031
0.0210;9.62236;7287.73828;9.62236
0.0211;9.62689;7231.44456;9.62689
0.0211;9.63332;7172.10993;9.63332
0.0212;9.63835;7109.88274;9.63835
0.0212;9.64345;7043.50213;9.64345
0.0213;9.64895;6968.55508;9.64895
0.0213;9.65636;6872.61841;9.65636
0.0214;9.66008;6770.22910;9.66008
0.0214;9.66356;6618.81455;9.66356
0.0215;9.66836;6350.32537;9.66836
0.0215;9.67132;5743.29507;9.67132
0.0216;9.67442;5115.64598;9.67442
0.0216;9.67658;4856.01991;9.67658
0.0216;9.67643;4521.66930;9.67643
0.0217;9.68251;4139.36889;9.68251
0.0217;9.68505;3997.52205;9.68505
0.0218;9.68940;3867.20838;9.68940
0.0218;9.69246;3726.36281;9.69246
0.0219;9.69724;3563.22968;9.69724
0.0219;9.70312;3309.64832;9.70312
0.0220;9.71138;3114.14073;9.71138
0.0220;9.71805;2825.95987;9.71805
0.0221;9.72494;2488.60544;9.72494
0.0221;9.73425;2143.76002;9.73425
0.0222;9.74022;1526.45741;9.74022
0.0222;9.74855;1063.38774;9.74855
0.0223;9.75557;1191.03135;9.75557
0.0223;9.75980;1232.38017;9.75980
0.0224;9.76289;948.27857;9.76289
0.0224;9.77055;1077.85055;9.77055
0.0225;9.77659;1298.87203;9.77659
0.0225;9.78414;1188.13879;9.78414
0.0226;9.79559;1224.03624;9.79559
0.0226;9.80370;1264.60629;9.80370
0.0227;9.81547;1092.90672;9.81547
0.0227;9.82074;1072.73294;9.82074
0.0228;9.82319;1085.04488;9.82319
0.0228;9.82833;1005.09147;9.82833
0.0228;9.83535;1080.48353;9.83535
0.0229;9.84633;1116.04722;9.84633
0.0229;9.85319;1063.83275;9.85319
0.0230;9.85951;1137.96395;9.85951
0.0230;9.86814;1130.28753;9.86814
0.0231;9.87615;1041.80477;9.87615
0.0231;9.88654;1011.39577;9.88654
0.0232;9.89390;965.70811;9.89390
0.0232;9.89646;919.68669;9.89646
0.0233;9.89959;941.93718;9.89959
0.0234;9.90613;970.93698;9.90613
0.0234;9.91603;997.26672;9.91603
0.0235;9.92487;1018.59010;9.92487
0.0235;9.93564;1028.97366;9.93564
0.0236;9.94326;1026.82278;9.94326
0.0236;9.95053;1012.91622;9.95053
0.0237;9.95627;969.30527;9.95627
0.0237;9.96324;951.72739;9.96324
0.0238;9.96873;946.38728;9.96873
0.0238;9.97288;927.47436;9.97288
0.0239;9.97828;938.37710;9.97828
0.0239;9.98310;961.51760;9.98310
0.0240;9.98950;951.83864;9.98950
0.0240;9.99733;936.59706;9.99733
0.0240;10.00377;943.71722;10.00377
0.0241;10.01010;936.63415;10.01010
0.0241;10.01427;912.52945;10.01427
0.0242;10.02131;918.27750;10.02131
0.0242;10.02651;928.10479;10.02651
0.0243;10.03242;923.50636;10.03242
0.0243;10.03827;936.44873;10.03827
0.0244;10.04427;945.20058;10.04427
0.0244;10.05074;969.11985;10.05074
0.0245;10.05564;962.22220;10.05564
0.0245;10.05806;940.26839;10.05806
0.0246;10.05945;941.45508;10.05945
0.0246;10.06394;922.09716;10.06394
0.0247;10.06897;894.09864;10.06897
0.0247;10.07512;891.20607;10.07512
0.0248;10.07939;892.20735;10.07939
0.0248;10.08462;897.06537;10.08462
0.0249;10.08905;907.37476;10.08905
0.0249;10.09134;927.43728;10.09134
0.0250;10.09735;945.90518;10.09735
0.0250;10.10107;946.35019;10.10107
0.0251;10.10624;945.42309;10.10624
0.0251;10.11078;955.58414;10.11078
0.0252;10.11481;954.02661;10.11481
0.0252;10.11635;957.95753;10.11635
0.0252;10.11703;967.00606;10.11703
0.0253;10.11825;971.38199;10.11825
0.0254;10.12164;975.27582;10.12164
0.0254;10.12412;978.57631;10.12412
0.0255;10.12571;967.15439;10.12571
0.0255;10.13018;957.88336;10.13018
0.0256;10.12831;957.32710;10.12831
0.0256;10.13199;958.03170;10.13199
0.0257;10.13747;965.67103;10.13747
0.0257;10.13714;977.87171;10.13714
0.0258;10.13859;997.93423;10.13859
0.0258;10.14050;1022.52102;10.14050
0.0259;10.14210;1037.35467;10.14210
0.0259;10.14418;1051.26123;10.14418
0.0260;10.14608;1056.78676;10.14608
0.0260;10.14723;1056.30467;10.14723
0.0261;10.14918;1053.11543;10.14918
0.0261;10.15031;1048.92492;10.15031
0.0262;10.15205;1051.00164;10.15205
0.0263;10.15390;1050.03745;10.15390
0.0263;10.15280;1055.19214;10.15280
0.0264;10.15469;1058.27013;10.15469
0.0264;10.15444;1064.87111;10.15444
0.0265;10.15786;1075.66259;10.15786
0.0265;10.15828;1081.96689;10.15828
0.0266;10.16000;1092.23920;10.16000
0.0266;10.15997;1107.03577;10.15997
0.0267;10.16268;1130.39878;10.16268
0.0267;10.16190;1150.46130;10.16190
0.0268;10.16342;1160.62236;10.16342
0.0268;10.16232;1168.70670;10.16232
0.0269;10.16065;1166.62999;10.16065
0.0270;10.16181;1165.92539;10.16181
0.0270;10.16333;1163.55200;10.16333
0.0271;10.16444;1156.98811;10.16444
0.0271;10.16588;1160.95611;10.16588
0.0272;10.16470;1167.96502;10.16470
0.0272;10.16806;1178.64525;10.16806
0.0273;10.16654;1187.99045;10.16654
0.0273;10.16634;1198.55943;10.16634
0.0274;10.16742;1207.90464;10.16742
0.0274;10.16885;1212.54015;10.16885
0.0275;10.17230;1223.10913;10.17230
0.0275;10.17358;1229.74720;10.17358
0.0276;10.17340;1234.97606;10.17340
0.0276;10.17533;1240.27909;10.17533
0.0276;10.17687;1246.65756;10.17687
0.0277;10.17879;1253.81480;10.17879
0.0277;10.18034;1255.78026;10.18034
0.0278;10.18035;1249.80972;10.18035
0.0279;10.18351;1241.83663;10.18351
0.0279;10.18196;1231.37890;10.18196
0.0280;10.18229;1225.55669;10.18229
0.0280;10.18662;1218.88154;10.18662
0.0281;10.19038;1222.47870;10.19038
0.0281;10.19171;1225.51960;10.19171
0.0282;10.19389;1230.74847;10.19389
0.0282;10.19891;1234.19729;10.19891
0.0283;10.20091;1237.12694;10.20091
0.0283;10.20532;1239.87117;10.20532
0.0284;10.20879;1236.19984;10.20879
0.0284;10.21669;1228.74592;10.21669
0.0285;10.22109;1219.99407;10.22109
0.0285;10.22880;1212.50307;10.22880
0.0286;10.23550;1199.96863;10.23550
0.0286;10.24204;1194.36893;10.24204
0.0287;10.25029;1190.62343;10.25029
0.0287;10.25531;1187.91628;10.25531
0.0288;10.26079;1186.43292;10.26079
0.0288;10.26587;1182.76159;10.26587
0.0288;10.27448;1178.16316;10.27448
0.0289;10.27613;1177.60689;10.27613
0.0289;10.28050;1179.20151;10.28050
0.0290;10.28336;1174.45474;10.28336
0.0290;10.28735;1173.67597;10.28735
0.0291;10.29129;1175.01100;10.29129
0.0291;10.29382;1177.42147;10.29382
0.0292;10.29895;1178.75650;10.29895
0.0292;10.30296;1179.31276;10.30296
0.0293;10.30842;1179.75777;10.30842
0.0293;10.31435;1172.19261;10.31435
0.0294;10.32108;1164.51619;10.32108
0.0294;10.32653;1152.87177;10.32653
0.0295;10.33324;1148.86668;10.33324
0.0295;10.33945;1143.30406;10.33945
0.0296;10.34514;1138.85397;10.34514
0.0296;10.35527;1139.00230;10.35527
0.0297;10.35919;1144.04575;10.35919
0.0297;10.36569;1148.05083;10.36569
0.0298;10.36954;1151.68508;10.36954
0.0298;10.37368;1159.69525;10.37368
0.0299;10.37724;1156.58019;10.37724
0.0299;10.37841;1155.46766;10.37841
0.0300;10.38078;1153.87304;10.38078
0.0300;10.38294;1148.49584;10.38294
0.0300;10.38617;1143.60074;10.38617
0.0301;10.39100;1142.78489;10.39100
0.0301;10.40005;1142.93322;10.40005
0.0302;10.40432;1140.15191;10.40432
0.0302;10.40904;1133.10592;10.40904
0.0303;10.41435;1130.76962;10.41435
0.0303;10.41887;1128.35915;10.41887
0.0304;10.42867;1125.94869;10.42867
0.0304;10.43307;1125.80035;10.43307
0.0305;10.43911;1122.27736;10.43911
0.0305;10.44325;1125.83743;10.44325
0.0306;10.44913;1129.02667;10.44913
0.0306;10.45314;1132.95759;10.45314
0.0307;10.45580;1138.89105;10.45580
0.0307;10.46048;1140.89359;10.46048
0.0308;10.46352;1143.97158;10.46352
0.0308;10.46612;1144.26825;10.46612
0.0309;10.47018;1140.70817;10.47018
0.0309;10.47126;1138.44604;10.47126
0.0310;10.47397;1137.40768;10.47397
0.0311;10.47888;1131.73381;10.47888
0.0311;10.48774;1132.95759;10.48774
0.0312;10.49647;1135.18264;10.49647
0.0312;10.50410;1140.07774;10.50410
