Part protocol
File name;Part_Maxymos 1_MP-001_2017-04-11_14-54-49_Sila_0_5mm_tepy_0113_OK.csv
Protocol version;5.00.00

Index;Result information;Process values - curve related;Process values - EO related;Evaluation objects settings;Switch signal settings;Device information;Channel-X settings;Channel-Y settings;Cycle control settings;Evaluation settings;Trigger Y settings;Block settings;Measuring curve;Measuring points;Sequence;
Line;10;30;40;70;100;120;150;190;220;240;250;260;270;280;1000;



Result information
Date;2017/04/11
Time;14:54:49
Cycle number;113
Total result;OK
Triggered switch signals
Part serial number;Sila_0_5mm_tepy_0113
Measuring program name;Blacha_0_5mm_tepy
Measuring program number;1
Zero X offset;0.000;mm
Tara Y offset;0;N









Process values - curve related
Block X;12.006;mm;XMIN-X;10.104;mm
Block Y;1149;N;XMIN-Y;0;N
Ref X;10.688;mm;XMAX-X;12.006;mm
Peak-peak X;1.902;mm;XMAX-Y;1149;N
Peak-peak Y;8342;N;YMIN-X;10.160;mm
;;;YMIN-Y;-3;N
;;;YMAX-X;11.036;mm
;;;YMAX-Y;8339;N

Process values - EO related;Result;Entry;Exit;XMIN-X;XMIN-Y;XMAX-X;XMAX-Y;YMIN-Y;YMIN-X;YMAX-Y;YMAX-X;Calculated result;NOK cause;Violation X;Violation Y;Ref X;Ref Y;X at Delta-Y;Switch force;Y-Diff;X-Diff;Force deviation ratio;Click ratio;Contact edge
;;;;mm;N;mm;N;N;mm;N;mm;-;-;mm;N;mm;N;mm;-;-;-;-;-;-;
EO-01;OK;10.667;;;;;;;;;;;;;;;;;
EO-02;OK;;;;;;;;;;;-0.369;;;;;;;
EO-03;OK;;;;;;;;;;;;;;;;;;
EO-04;None;
EO-05;None;
EO-06;None;
EO-07;None;
EO-08;None;
EO-09;None;
EO-10;None;


















Evaluation objects settings;Reaction;X reference;Y-Reference;XMin;XMax;YMin;YMax;Entry;Exit;Curve part;Catch zone X;Catch zone Y;EO Name;Description;Re-entry ignored;Generate statistics;X-Hysteresis;Y-Hysteresis;Down sampling rate;Calc limit min;Calc limit max;Grad limit min;Grad limit max;Hyst limit min;Hyst limit max;Speed limit min;Speed limit max;Time limit min;Time limit max;Is curve inside box;GetRef type;CalcInput1 | dx;CalcInput2 | dx;Calc operation;Work limit min;Work limit max;Average limit min;Average limit max;Max bending;Detection dX;Signal;Operation;State;Visualization offset X;Visualization offset Y;Delta-Y Max
EO-01;LINE-X;ABSOLUTE;ABSOLUTE;7.000;10.935;1000;;BELOW;NONE;ANY;+50%;+0%;;;FALSE;TRUE;0.000;0;1;;;;;;;;;;;;;;;;;;;;;;;;;0.000;0;
EO-02;CALC;ABSOLUTE;ABSOLUTE;4.900;;4852;;NONE;NONE;ANY;+0%;+0%;;;FALSE;TRUE;0.000;0;1;-0.400000;-0.320000;;;;;;;;;;;EO-01 | ENTRY;PV_TABLE_CURVE | YMAX-X;Subtraction;;;;;;;;;;0.000;0;
EO-03;NO-PASS;ABSOLUTE;ABSOLUTE;7.767;14.467;10000;;NONE;NONE;ANY;+0%;+0%;;;FALSE;TRUE;0.000;0;1;;;;;;;;;;;;;;;;;;;;;;;;;0.000;0;
EO-04;OFF
EO-05;OFF
EO-06;OFF
EO-07;OFF
EO-08;OFF
EO-09;OFF
EO-10;OFF



















Switch signal settings;Channel;Threshold at;;Trigger from;Reference;Latch until
Type S1;OFF
Type S2;OFF

















Device information
Device type;maXYmos TL
Device type number;5877A0
Device serial number;4915791
Firmware version;1.2.16 (r22387-TL_v1.2.16)
-
-
-
-
-
IP Address;192.168.21.10
Network name;Maxymos 1
Profibus address;10
-
-
-
Device name;Maxymos 1
Company name;ITW WIP PW
Comment;











Channel-X settings
Use the settings from global setup;False
Sensor-X type;Potentiometer
Unit;mm
Used range from;9.000;mm
Used range to;12.000;mm
Decimal places;3 (iiii.fff)
Scaling by;Teach-In
Point 1;1.000;mm;32.390;%
Point 2;16.000;mm;82.811;%
Invert signal;FALSE
Filter;OFF
Test point;0.000;mm
Tolerance;0.010;mm
Enable sensor test by dig-input;FALSE
Zoom from;9.000;mm
Zoom to;12.000;mm
Master Measurement Enable;FALSE
Master Measurement Nominal Position;0.000;mm
Encoder interpolation factor;-
Encoder electrical interface;-
Encoder referencing type;-
Encoder referencing edge;-
Encoder pulses per minute;-
Encoder use every nth-mark;-
Reference;-
Encoder reference points;-
Encoder coding;-
Encoder width;-
Encoder optimization;-
Encoder clock frequency;-
Termination resistor;-








Channel-Y settings
Use the settings from global setup;False
Sensor-Y type;Piezo
Unit;N
Used range from;0;N
Used range to;190000;N
Decimal places;0 (iiiiiii.)
Scaling by;Calibration Sheet
Sensitivity;-4.3000;pC/N
-
Invert signal;FALSE
Filter;OFF
Piezo reset;TRUE
Test point;0;N
Tolerance;0;N
Enable sensor test by dig-input;FALSE
Zoom from;0;N
Zoom to;190000;N












Cycle control settings
Use the settings from global setup;False
Measuring function;Y (X)
Delta-X;User-Defined;0.00200;mm
START condition;Threshold-X;10.000;mm;Trigger from;LEFT
STOP condition;Threshold-X;12.000;mm;Trigger from;LEFT
Cycle time out;0.40;s
Turning point LEFT;NONE
Turning point RIGHT;NONE
Cut curve at;NONE










Evaluation settings
Capture only first NOK-EO for statistics;False
Hysteresis-X;0.0;%
Hysteresis-Y;0.0;%






Trigger Y settings
Threshold;1608;N
Value X at TRIGGER Y;0.000;mm
Approach from;BELOW






Block settings
Value X at block;XMAX
Block at;0.000;mm







Measuring curve
Number of measuring points;714
Ref. Graph on;ABSOLUTE
Curve segment;0;714;


Time;X(ABSOLUTE);Y;X (ABSOLUTE)


s;mm;N;mm
0.0000;10.10435;0.00000;10.10435
0.0000;10.11025;0.00000;10.11025
0.0000;10.11372;0.00000;10.11372
0.0000;10.11586;0.00000;10.11586
0.0000;10.11801;0.00000;10.11801
0.0000;10.12029;0.00000;10.12029
0.0000;10.12291;0.00000;10.12291
0.0000;10.12709;0.00000;10.12709
0.0000;10.13320;0.00000;10.13320
0.0000;10.13657;0.00000;10.13657
0.0000;10.14009;0.00000;10.14009
0.0000;10.14545;0.00000;10.14545
0.0000;10.14997;0.00000;10.14997
0.0000;10.15230;0.00000;10.15230
0.0000;10.15513;0.00000;10.15513
0.0000;10.15738;0.00000;10.15738
0.0000;10.16020;-3.00382;10.16020
0.0001;10.16295;-1.96546;10.16295
0.0004;10.17980;19.02416;10.17980
0.0005;10.18159;24.14178;10.18159
0.0005;10.18341;30.03815;10.18341
0.0006;10.18653;32.30029;10.18653
0.0006;10.19092;34.85909;10.19092
0.0007;10.19341;35.52661;10.19341
0.0007;10.19403;37.30665;10.19403
0.0008;10.19650;39.01252;10.19650
0.0008;10.20045;41.83091;10.20045
0.0009;10.20320;43.35136;10.20320
0.0009;10.20672;42.53551;10.20672
0.0010;10.21197;43.05469;10.21197
0.0010;10.21658;43.79637;10.21658
0.0011;10.21835;56.29373;10.21835
0.0011;10.22025;60.03922;10.22025
0.0012;10.22334;60.29881;10.22334
0.0012;10.22652;65.19392;10.22652
0.0012;10.22983;71.09030;10.22983
0.0013;10.23283;77.50585;10.23283
0.0013;10.23548;84.58893;10.23548
0.0014;10.23852;86.70272;10.23852
0.0014;10.24171;93.93413;10.24171
0.0015;10.24421;98.64381;10.24421
0.0015;10.24729;105.43021;10.24729
0.0016;10.25119;108.10027;10.25119
0.0016;10.25502;112.73579;10.25502
0.0017;10.25790;115.55418;10.25790
0.0017;10.26118;123.11935;10.26118
0.0018;10.26431;123.41602;10.26431
0.0018;10.26669;130.12825;10.26669
0.0019;10.26962;135.09753;10.26962
0.0019;10.27328;137.84175;10.27328
0.0020;10.27544;137.02590;10.27544
0.0020;10.27713;144.77649;10.27713
0.0021;10.27961;149.18950;10.27961
0.0021;10.28199;151.26621;10.28199
0.0022;10.28480;152.71249;10.28480
0.0022;10.28833;159.12805;10.28833
0.0023;10.29108;162.94772;10.29108
0.0023;10.29319;166.80447;10.29319
0.0024;10.29571;169.65994;10.29571
0.0024;10.29895;171.32873;10.29895
0.0024;10.30297;174.22129;10.30297
0.0025;10.30669;176.26092;10.30669
0.0025;10.30985;178.85681;10.30985
0.0026;10.31178;179.63558;10.31178
0.0026;10.31382;180.71102;10.31382
0.0027;10.31702;181.78646;10.31702
0.0027;10.32085;185.68029;10.32085
0.0028;10.32362;186.16239;10.32362
0.0028;10.32671;188.12785;10.32671
0.0029;10.33074;190.27873;10.33074
0.0029;10.33459;188.94370;10.33459
0.0030;10.33748;191.16875;10.33748
0.0030;10.33952;194.69174;10.33952
0.0031;10.34046;198.91933;10.34046
0.0031;10.34175;202.18274;10.34175
0.0032;10.34388;204.74154;10.34388
0.0032;10.34719;208.15328;10.34719
0.0033;10.35058;214.93968;10.35058
0.0033;10.35431;215.82970;10.35431
0.0034;10.35814;219.68645;10.35814
0.0034;10.36153;226.25034;10.36153
0.0035;10.36581;231.55338;10.36581
0.0035;10.36842;235.11345;10.36842
0.0036;10.36898;237.37559;10.36898
0.0036;10.36907;241.56609;10.36907
0.0036;10.36999;246.42412;10.36999
0.0037;10.37158;250.72588;10.37158
0.0037;10.37336;251.02255;10.37336
0.0038;10.37552;255.13889;10.37552
0.0038;10.37894;256.73351;10.37894
0.0039;10.38128;259.18106;10.38128
0.0039;10.38278;260.84985;10.38278
0.0040;10.38542;262.88947;10.38542
0.0040;10.38806;264.78077;10.38806
0.0041;10.38972;267.74750;10.38972
0.0041;10.39150;268.22959;10.39150
0.0042;10.39249;271.38174;10.39249
0.0042;10.39332;273.08761;10.39332
0.0043;10.39468;273.79221;10.39468
0.0043;10.39715;272.82802;10.39715
0.0044;10.40041;277.72313;10.40041
0.0044;10.40233;279.91110;10.40233
0.0045;10.40496;279.79984;10.40496
0.0045;10.40659;281.17196;10.40659
0.0046;10.40893;283.17450;10.40893
0.0046;10.41226;282.72949;10.41226
0.0047;10.41568;282.09906;10.41568
0.0047;10.41963;286.92000;10.41963
0.0048;10.42510;289.10796;10.42510
0.0048;10.43103;287.84710;10.43103
0.0048;10.43482;288.18086;10.43482
0.0049;10.43928;292.81638;10.43928
0.0049;10.44205;291.74094;10.44205
0.0050;10.44446;293.07597;10.44446
0.0050;10.44829;298.30483;10.44829
0.0051;10.45068;300.08487;10.45068
0.0051;10.45198;302.34700;10.45198
0.0052;10.45386;304.53496;10.45386
0.0052;10.45610;309.61549;10.45610
0.0053;10.45894;313.73183;10.45894
0.0053;10.46096;314.17684;10.46096
0.0054;10.46318;318.55277;10.46318
0.0054;10.46501;321.81617;10.46501
0.0055;10.46613;330.90179;10.46613
0.0055;10.46719;333.83144;10.46719
0.0056;10.46808;331.27263;10.46808
0.0056;10.46968;336.05648;10.46968
0.0057;10.47159;339.57948;10.47159
0.0057;10.47344;340.87742;10.47344
0.0058;10.47585;342.32370;10.47585
0.0058;10.48091;343.88124;10.48091
0.0059;10.48459;345.80961;10.48459
0.0059;10.48859;347.36715;10.48859
0.0060;10.49189;347.40423;10.49189
0.0060;10.49398;349.03593;10.49398
0.0060;10.49634;347.77507;10.49634
0.0061;10.49827;350.74180;10.49827
0.0061;10.50103;351.26098;10.50103
0.0062;10.50402;352.41059;10.50402
0.0062;10.50643;354.00521;10.50643
0.0063;10.51006;352.70726;10.51006
0.0063;10.51610;355.22899;10.51610
0.0064;10.52065;357.75071;10.52065
0.0064;10.52402;357.67654;10.52402
0.0065;10.52675;357.71362;10.52675
0.0065;10.52912;359.56783;10.52912
0.0066;10.53128;359.67908;10.53128
0.0066;10.53348;360.79161;10.53348
0.0067;10.53603;364.94503;10.53603
0.0067;10.53782;359.12282;10.53782
0.0068;10.53912;363.53583;10.53912
0.0068;10.54001;366.79924;10.54001
0.0069;10.54237;365.42712;10.54237
0.0069;10.54477;367.05883;10.54477
0.0070;10.54661;371.87976;10.54661
0.0070;10.54877;373.99356;10.54877
0.0071;10.55028;377.33113;10.55028
0.0071;10.55252;379.51910;10.55252
0.0072;10.55414;378.92575;10.55414
0.0072;10.55577;383.37585;10.55577
0.0072;10.55718;386.04591;10.55718
0.0073;10.56090;388.49346;10.56090
0.0073;10.56477;392.12771;10.56477
0.0074;10.56824;398.43201;10.56824
0.0074;10.57284;399.72995;10.57284
0.0075;10.57856;406.03426;10.57856
0.0075;10.58375;406.70177;10.58375
0.0076;10.58650;408.51890;10.58650
0.0076;10.58964;411.74522;10.58964
0.0077;10.59288;411.70813;10.59288
0.0077;10.59501;414.34111;10.59501
0.0078;10.59827;414.45236;10.59827
0.0078;10.59997;416.15823;10.59997
0.0079;10.60261;414.22985;10.60261
0.0079;10.60686;417.75285;10.60686
0.0080;10.61100;415.86156;10.61100
0.0080;10.61364;416.30657;10.61364
0.0081;10.61567;420.23748;10.61567
0.0081;10.61850;417.45617;10.61850
0.0082;10.62135;420.53416;10.62135
0.0082;10.62405;421.20167;10.62405
0.0083;10.62601;427.13513;10.62601
0.0083;10.62849;421.23876;10.62849
0.0084;10.63012;425.16968;10.63012
0.0084;10.63250;426.87555;10.63250
0.0084;10.63560;430.50979;10.63560
0.0085;10.63799;427.28347;10.63799
0.0085;10.64016;432.73484;10.64016
0.0086;10.64173;427.69140;10.64173
0.0086;10.64294;431.54815;10.64294
0.0087;10.64384;433.29110;10.64384
0.0087;10.64513;436.29492;10.64513
0.0088;10.64698;435.03406;10.64698
0.0088;10.64891;436.70284;10.64891
0.0089;10.65097;437.88954;10.65097
0.0089;10.65210;444.86135;10.65210
0.0090;10.65322;488.65772;10.65322
0.0090;10.65462;562.30683;10.65462
0.0091;10.65681;630.94957;10.65681
0.0091;10.65940;709.41962;10.65940
0.0092;10.66166;809.17595;10.66166
0.0092;10.66399;899.69834;10.66399
0.0093;10.66654;989.47905;10.66654
0.0093;10.66817;1082.18940;10.66817
0.0094;10.67036;1158.32314;10.67036
0.0094;10.67334;1232.23183;10.67334
0.0095;10.67693;1309.10726;10.67693
0.0095;10.67962;1379.49296;10.67962
0.0096;10.68214;1446.80067;10.68214
0.0096;10.68384;1517.44596;10.68384
0.0096;10.68642;1582.41738;10.68642
0.0097;10.68817;1644.75582;10.68817
0.0097;10.69003;1699.45492;10.69003
0.0098;10.69242;1757.49160;10.69242
0.0098;10.69546;1807.81478;10.69546
0.0099;10.69831;1857.24794;10.69831
0.0099;10.70029;1905.01232;10.70029
0.0100;10.70325;1956.07718;10.70325
0.0100;10.70731;2004.50907;10.70731
0.0101;10.70978;2052.38469;10.70978
0.0101;10.71139;2101.74368;10.71139
0.0102;10.71242;2151.58477;10.71242
0.0102;10.71453;2202.16754;10.71453
0.0103;10.71680;2254.90119;10.71680
0.0103;10.71933;2312.82661;10.71933
0.0104;10.72159;2364.96692;10.72159
0.0104;10.72374;2416.36554;10.72374
0.0105;10.72547;2471.50965;10.72547
0.0105;10.72813;2521.53616;10.72813
0.0106;10.73072;2572.08184;10.73072
0.0106;10.73265;2622.77586;10.73265
0.0107;10.73422;2667.49934;10.73422
0.0107;10.73685;2711.11029;10.73685
0.0108;10.73911;2759.17133;10.73911
0.0108;10.74059;2796.66340;10.74059
0.0108;10.74201;2832.56085;10.74201
0.0109;10.74248;2871.42503;10.74248
0.0109;10.74346;2908.95418;10.74346
0.0110;10.74449;2941.51405;10.74449
0.0110;10.74562;2976.29898;10.74562
0.0111;10.74677;3010.60181;10.74677
0.0111;10.74746;3039.30493;10.74746
0.0112;10.74812;3067.93389;10.74812
0.0112;10.74885;3100.60502;10.74885
0.0113;10.74917;3129.56773;10.74917
0.0113;10.74927;3154.41411;10.74927
0.0114;10.75021;3182.30138;10.75021
0.0114;10.75034;3211.41243;10.75034
0.0115;10.75041;3244.41732;10.75041
0.0115;10.75113;3271.22915;10.75113
0.0116;10.75186;3298.48599;10.75186
0.0116;10.75270;3328.82082;10.75270
0.0117;10.75408;3358.37688;10.75408
0.0117;10.75467;3386.18999;10.75467
0.0118;10.75572;3414.33685;10.75572
0.0118;10.75599;3444.22667;10.75599
0.0119;10.75606;3470.59349;10.75606
0.0119;10.75652;3502.07793;10.75652
0.0120;10.75720;3531.85649;10.75720
0.0120;10.75779;3561.30130;10.75779
0.0120;10.75865;3596.12331;10.75865
0.0121;10.75897;3626.12438;10.75897
0.0121;10.75859;3662.20725;10.75859
0.0122;10.75919;3697.88219;10.75919
0.0122;10.75916;3733.70547;10.75916
0.0123;10.75964;3774.57220;10.75964
0.0123;10.76114;3811.47092;10.76114
0.0124;10.76178;3849.18549;10.76178
0.0124;10.76320;3890.31180;10.76320
0.0125;10.76518;3932.25396;10.76518
0.0125;10.76639;3973.63986;10.76639
0.0126;10.76748;4017.43623;10.76748
0.0126;10.76901;4062.86431;10.76901
0.0127;10.76975;4107.69903;10.76975
0.0127;10.77058;4154.46213;10.77058
0.0128;10.77219;4202.59735;10.77219
0.0128;10.77330;4254.77474;10.77330
0.0129;10.77405;4306.50711;10.77405
0.0129;10.77513;4360.42745;10.77513
0.0130;10.77678;4415.49740;10.77678
0.0130;10.77764;4472.75532;10.77764
0.0131;10.77798;4529.38280;10.77798
0.0131;10.77879;4589.27369;10.77879
0.0132;10.77823;4646.45743;10.77823
0.0132;10.77640;4703.30742;10.77640
0.0132;10.77945;4761.23285;10.77945
0.0133;10.78153;4820.01121;10.78153
0.0133;10.78305;4876.00826;10.78305
0.0134;10.78344;4930.92988;10.78344
0.0134;10.78383;4991.22869;10.78383
0.0135;10.78474;5047.81909;10.78474
0.0135;10.78620;5100.70107;10.78620
0.0136;10.78708;5155.43727;10.78708
0.0136;10.78816;5211.80516;10.78816
0.0137;10.78978;5260.12579;10.78978
0.0137;10.79165;5316.12285;10.79165
0.0138;10.79325;5369.33859;10.79325
0.0138;10.79565;5423.40727;10.79565
0.0139;10.79838;5471.50540;10.79838
0.0139;10.80129;5522.94110;10.80129
0.0140;10.80381;5571.66966;10.80381
0.0140;10.80696;5624.44040;10.80696
0.0141;10.80987;5670.94391;10.80987
0.0141;10.81234;5718.22619;10.81234
0.0142;10.81603;5764.06219;10.81603
0.0142;10.82042;5813.60660;10.82042
0.0143;10.82401;5862.40933;10.82401
0.0143;10.82828;5904.53691;10.82828
0.0144;10.83164;5951.33710;10.83164
0.0144;10.83416;5996.13474;10.83416
0.0144;10.83687;6041.89657;10.83687
0.0145;10.83989;6087.54715;10.83989
0.0145;10.84208;6133.04939;10.84208
0.0146;10.84354;6172.95192;10.84354
0.0146;10.84603;6216.71121;10.84603
0.0147;10.84937;6259.46922;10.84937
0.0147;10.85140;6303.11726;10.85140
0.0148;10.85396;6343.87273;10.85396
0.0148;10.85638;6390.11665;10.85638
0.0149;10.85926;6432.39257;10.85926
0.0149;10.86208;6468.99462;10.86208
0.0150;10.86469;6515.27563;10.86469
0.0150;10.86670;6552.50810;10.86670
0.0151;10.86830;6588.59097;10.86830
0.0151;10.86982;6626.67639;10.86982
0.0152;10.87207;6669.84233;10.87207
0.0152;10.87335;6704.81267;10.87335
0.0153;10.87502;6738.89300;10.87502
0.0153;10.87594;6777.23800;10.87594
0.0154;10.87548;6811.24416;10.87548
0.0154;10.87636;6847.58661;10.87636
0.0155;10.87746;6883.52115;10.87746
0.0155;10.87942;6916.89687;10.87942
0.0156;10.88116;6951.94139;10.88116
0.0156;10.88255;6986.31838;10.88255
0.0156;10.88481;7020.91789;10.88481
0.0157;10.88620;7055.81406;10.88620
0.0157;10.88820;7091.45192;10.88820
0.0158;10.89023;7119.96963;10.89023
0.0158;10.89147;7153.67911;10.89147
0.0159;10.89362;7190.16991;10.89362
0.0159;10.89666;7222.61853;10.89666
0.0160;10.90050;7257.40345;10.90050
0.0160;10.90468;7289.81499;10.90468
0.0161;10.90867;7323.22780;10.90867
0.0161;10.91331;7354.60099;10.91331
0.0162;10.91824;7383.52662;10.91824
0.0162;10.92138;7415.04814;10.92138
0.0163;10.92458;7448.53512;10.92458
0.0163;10.92730;7482.24460;10.92730
0.0164;10.93054;7511.20731;10.93054
0.0164;10.93418;7544.21220;10.93418
0.0165;10.93812;7573.99077;10.93812
0.0165;10.93985;7603.76933;10.93985
0.0166;10.94335;7637.55298;10.94335
0.0166;10.94507;7664.84691;10.94507
0.0167;10.94519;7693.10503;10.94519
0.0167;10.94760;7723.99612;10.94760
0.0168;10.94749;7753.70051;10.94749
0.0168;10.94865;7781.73612;10.94865
0.0168;10.94931;7809.80882;10.94931
0.0169;10.95077;7839.43905;10.95077
0.0169;10.95236;7867.10381;10.95236
0.0170;10.95339;7896.17778;10.95339
0.0170;10.95515;7923.62005;10.95515
0.0171;10.95684;7949.20810;10.95684
0.0171;10.95903;7974.46240;10.95903
0.0172;10.96150;8000.42130;10.96150
0.0172;10.96413;8022.85721;10.96413
0.0173;10.96658;8049.14986;10.96658
0.0173;10.96861;8070.80700;10.96861
0.0174;10.96994;8090.35034;10.96994
0.0174;10.97125;8110.67245;10.97125
0.0175;10.97329;8131.17998;10.97329
0.0175;10.97757;8148.60953;10.97757
0.0176;10.97988;8170.67459;10.97988
0.0176;10.98156;8184.09905;10.98156
0.0177;10.98276;8203.53114;10.98276
0.0177;10.98424;8219.51441;10.98424
0.0178;10.98567;8233.94014;10.98567
0.0178;10.98714;8248.99630;10.98714
0.0179;10.99045;8260.78905;10.99045
0.0179;10.99336;8273.54600;10.99336
0.0180;10.99656;8282.48328;10.99656
0.0180;10.99980;8292.45891;10.99980
0.0180;11.00421;8304.40000;11.00421
0.0181;11.00900;8312.78102;11.00900
0.0181;11.01549;8319.64159;11.01549
0.0182;11.02216;8325.27838;11.02216
0.0182;11.02755;8331.02642;11.02755
0.0183;11.03159;8337.14530;11.03159
0.0183;11.03592;8339.44452;11.03592
0.0184;11.04023;8337.96115;11.04023
0.0184;11.04402;8337.66448;11.04402
0.0185;11.04677;8336.06986;11.04677
0.0185;11.04991;8335.32818;11.04991
0.0186;11.05250;8326.72466;11.05250
0.0186;11.05507;8327.61468;11.05507
0.0187;11.05847;8321.31037;11.05847
0.0187;11.06257;8313.63396;11.06257
0.0188;11.06763;8304.62251;11.06763
0.0188;11.07166;8292.68142;11.07166
0.0189;11.07556;8286.97046;11.07556
0.0189;11.07804;8280.10989;11.07804
0.0190;11.08035;8267.27878;11.08035
0.0190;11.08370;8259.97320;11.08370
0.0191;11.08648;8247.88377;11.08648
0.0191;11.08867;8233.75472;11.08867
0.0192;11.09296;8221.51695;11.09296
0.0192;11.09689;8204.75492;11.09689
0.0192;11.10164;8191.59005;11.10164
0.0193;11.10426;8173.90091;11.10426
0.0193;11.10576;8159.32684;11.10576
0.0194;11.10758;8139.78350;11.10758
0.0194;11.10923;8121.31560;11.10923
0.0195;11.11226;8097.80426;11.11226
0.0195;11.11454;8078.03841;11.11454
0.0196;11.11561;8059.57051;11.11561
0.0196;11.11912;8037.50544;11.11912
0.0197;11.12141;8016.10789;11.12141
0.0197;11.12485;7992.74488;11.12485
0.0198;11.12832;7967.86143;11.12832
0.0198;11.13064;7948.28100;11.13064
0.0199;11.13309;7922.17376;11.13309
0.0199;11.13534;7896.54862;11.13534
0.0200;11.13702;7875.07691;11.13702
0.0200;11.13919;7850.19345;11.13919
0.0201;11.14217;7821.56449;11.14217
0.0201;11.14584;7793.56596;11.14584
0.0202;11.14900;7769.42419;11.14900
0.0202;11.15286;7739.27478;11.15286
0.0203;11.15628;7712.72254;11.15628
0.0203;11.15854;7683.05522;11.15854
0.0204;11.16081;7656.87382;11.16081
0.0204;11.16210;7623.90602;11.16210
0.0204;11.16347;7594.75788;11.16347
0.0205;11.16538;7560.82590;11.16538
0.0205;11.16694;7529.15604;11.16694
0.0206;11.16797;7496.67033;11.16797
0.0206;11.17052;7465.11173;11.17052
0.0207;11.17352;7431.92142;11.17352
0.0207;11.17611;7396.58024;11.17611
0.0208;11.17829;7360.20069;11.17829
0.0208;11.18115;7320.44649;11.18115
0.0209;11.18390;7280.61813;11.18390
0.0209;11.18770;7240.60434;11.18770
0.0210;11.19049;7195.91795;11.19049
0.0210;11.19317;7151.52823;11.19317
0.0211;11.19528;7103.28177;11.19528
0.0211;11.19916;7043.65047;11.19916
0.0212;11.20331;6972.70851;11.20331
0.0212;11.20763;6888.04541;11.20763
0.0213;11.21340;6769.48741;11.21340
0.0213;11.21996;6596.56406;11.21996
0.0214;11.22391;6313.46373;11.22391
0.0214;11.22528;5937.69013;11.22528
0.0215;11.22552;5673.53980;11.22552
0.0215;11.22747;5437.27674;11.22747
0.0216;11.22957;5169.04714;11.22957
0.0216;11.23160;4960.67136;11.23160
0.0216;11.23373;4721.03364;11.23373
0.0217;11.23489;4447.68644;11.23489
0.0217;11.23525;4230.11378;11.23525
0.0218;11.23666;3976.68076;11.23666
0.0218;11.23969;3662.80059;11.23969
0.0219;11.24212;3379.03275;11.24212
0.0219;11.24475;3098.19455;11.24475
0.0220;11.24851;2832.04167;11.24851
0.0220;11.25329;2622.62753;11.25329
0.0221;11.25748;2430.71710;11.25748
0.0221;11.26071;2205.61636;11.26071
0.0222;11.26270;1882.98434;11.26270
0.0222;11.26348;1410.86614;11.26348
0.0223;11.26476;1161.62363;11.26476
0.0223;11.26679;1212.98516;11.26679
0.0224;11.27024;1076.29302;11.27024
0.0224;11.27481;936.22622;11.27481
0.0225;11.28022;1074.32756;11.28022
0.0225;11.28587;1152.61218;11.28587
0.0226;11.29177;1129.43459;11.29177
0.0226;11.29836;1218.99279;11.29836
0.0227;11.30619;1222.81246;11.30619
0.0227;11.31659;1126.05994;11.31659
0.0228;11.32757;1135.55348;11.32757
0.0228;11.33728;1101.47315;11.33728
0.0228;11.34595;1039.13471;11.34595
0.0229;11.35181;1039.20888;11.35181
0.0229;11.35798;1019.22053;11.35798
0.0230;11.36495;1011.87787;11.36495
0.0230;11.36970;1035.27796;11.36970
0.0231;11.37313;1045.66152;11.37313
0.0231;11.37666;1032.34831;11.37666
0.0232;11.38051;1007.46486;11.38051
0.0232;11.38522;992.03785;11.38522
0.0233;11.39021;967.37690;11.39021
0.0233;11.39479;947.09187;11.39479
0.0234;11.40040;955.54706;11.40040
0.0234;11.40710;965.33727;11.40710
0.0235;11.41324;974.60831;11.41324
0.0235;11.41865;990.99950;11.41865
0.0236;11.42434;1009.80116;11.42434
0.0236;11.42834;1008.68863;11.42834
0.0237;11.43067;997.34088;11.43067
0.0237;11.43401;969.15694;11.43401
0.0238;11.43871;943.97681;11.43871
0.0238;11.44523;921.83757;11.44523
0.0239;11.45255;910.37857;11.45255
0.0239;11.45746;921.46673;11.45746
0.0240;11.46197;933.74158;11.46197
0.0240;11.46871;940.15714;11.46871
0.0240;11.47416;967.52524;11.47416
0.0241;11.47864;982.39598;11.47864
0.0241;11.48385;986.54940;11.48385
0.0242;11.48967;989.77572;11.48967
0.0242;11.49500;981.17220;11.49500
0.0243;11.50203;980.65302;11.50203
0.0243;11.50695;976.38835;11.50695
0.0244;11.50988;977.53795;11.50988
0.0244;11.51424;985.84480;11.51424
0.0245;11.51933;984.32435;11.51933
0.0245;11.52346;981.28345;11.52346
0.0246;11.52724;973.01369;11.52724
0.0246;11.53132;964.00224;11.53132
0.0247;11.53504;951.91281;11.53504
0.0247;11.53723;939.89755;11.53723
0.0248;11.53911;937.78375;11.53911
0.0248;11.54079;938.82211;11.54079
0.0249;11.54344;945.16350;11.54344
0.0249;11.54752;962.11095;11.54752
0.0250;11.55171;981.06095;11.55171
0.0250;11.55676;984.25018;11.55676
0.0251;11.56107;986.62357;11.56107
0.0251;11.56461;982.32181;11.56461
0.0252;11.56764;969.19402;11.56764
0.0252;11.57237;965.07768;11.57237
0.0252;11.57556;950.20694;11.57556
0.0253;11.58057;938.52544;11.58057
0.0253;11.58624;927.65978;11.58624
0.0254;11.58809;925.32348;11.58809
0.0254;11.59016;925.99100;11.59016
0.0255;11.59181;929.25440;11.59181
0.0255;11.59276;935.29912;11.59276
0.0256;11.59436;937.93209;11.59436
0.0256;11.59635;943.45763;11.59635
0.0257;11.59811;953.80410;11.59811
0.0257;11.59839;964.59559;11.59839
0.0258;11.59914;975.46124;11.59914
0.0258;11.59969;986.69774;11.59969
0.0259;11.60028;999.34343;11.60028
0.0259;11.60062;1008.83697;11.60062
0.0260;11.60148;1015.54920;11.60148
0.0260;11.60179;1016.25380;11.60179
0.0261;11.60384;1010.65409;11.60384
0.0261;11.60502;1006.16691;11.60502
0.0262;11.60574;998.67591;11.60574
0.0262;11.60588;997.93423;11.60588
0.0263;11.60551;1000.04803;11.60551
0.0263;11.60511;1010.57992;11.60511
0.0264;11.60599;1023.93021;11.60599
0.0264;11.60663;1031.05037;11.60663
0.0264;11.60622;1042.36103;11.60622
0.0265;11.60690;1056.74968;11.60690
0.0265;11.60848;1070.47081;11.60848
0.0266;11.60865;1077.10887;11.60865
0.0266;11.60864;1088.75329;11.60864
0.0267;11.60958;1094.31591;11.60958
0.0267;11.60952;1098.54351;11.60952
0.0268;11.60992;1100.54605;11.60992
0.0268;11.61007;1098.32100;11.61007
0.0269;11.61043;1096.13304;11.61043
0.0269;11.61078;1087.86327;11.61078
0.0270;11.61085;1080.74312;11.61085
0.0270;11.61179;1082.78275;11.61179
0.0271;11.61237;1079.37100;11.61237
0.0271;11.61335;1080.22394;11.61335
0.0272;11.61545;1085.37864;11.61545
0.0272;11.61691;1091.20085;11.61691
0.0273;11.61845;1093.16630;11.61845
0.0273;11.61955;1105.40407;11.61955
0.0274;11.62085;1116.90016;11.62085
0.0274;11.62221;1123.79781;11.62221
0.0275;11.62423;1128.50749;11.62423
0.0275;11.62602;1131.06630;11.62602
0.0276;11.62751;1133.77344;11.62751
0.0276;11.62906;1132.29007;11.62906
0.0276;11.63258;1129.62002;11.63258
0.0277;11.63601;1128.32207;11.63601
0.0277;11.63975;1122.94487;11.63975
0.0278;11.64347;1123.05612;11.64347
0.0278;11.64790;1123.98323;11.64790
0.0279;11.65260;1119.05104;11.65260
0.0279;11.65749;1122.87070;11.65749
0.0280;11.66170;1128.73000;11.66170
0.0280;11.66622;1130.62129;11.66622
0.0281;11.66840;1134.25553;11.66840
0.0281;11.67110;1139.26189;11.67110
0.0282;11.67399;1145.64036;11.67399
0.0282;11.67596;1152.27843;11.67596
0.0283;11.67733;1153.13136;11.67733
0.0283;11.67855;1155.13390;11.67855
0.0284;11.68106;1154.42931;11.68106
0.0284;11.68400;1148.42167;11.68400
0.0285;11.68688;1143.41532;11.68688
0.0285;11.68848;1133.06884;11.68848
0.0286;11.69055;1125.91160;11.69055
0.0286;11.69355;1121.57276;11.69355
0.0287;11.69830;1114.23010;11.69830
0.0287;11.70428;1114.56385;11.70428
0.0288;11.70703;1110.85544;11.70703
0.0288;11.70950;1110.70710;11.70950
0.0288;11.71209;1110.37335;11.71209
0.0289;11.71560;1110.89252;11.71560
0.0289;11.72125;1106.70202;11.72125
0.0290;11.72781;1105.40407;11.72781
0.0290;11.73286;1100.80564;11.73286
0.0291;11.73690;1092.42462;11.73690
0.0291;11.73986;1088.60496;11.73986
0.0292;11.74129;1086.41699;11.74129
0.0292;11.74317;1076.51553;11.74317
0.0293;11.74499;1072.43627;11.74499
0.0293;11.74765;1067.68950;11.74765
0.0294;11.75029;1065.90946;11.75029
0.0294;11.75232;1058.86347;11.75232
0.0295;11.75313;1051.40956;11.75313
0.0295;11.75466;1052.26250;11.75466
0.0296;11.75643;1050.89038;11.75643
0.0296;11.75932;1054.48755;11.75932
0.0297;11.76377;1056.52717;11.76377
0.0297;11.76751;1058.01054;11.76751
0.0298;11.77039;1060.05017;11.77039
0.0298;11.77300;1061.83021;11.77300
0.0299;11.77533;1064.09234;11.77533
0.0299;11.77806;1062.79439;11.77806
0.0300;11.78352;1056.89802;11.78352
0.0300;11.78893;1052.67042;11.78893
0.0300;11.79210;1046.92238;11.79210
0.0301;11.79396;1042.95438;11.79396
0.0301;11.79598;1041.17434;11.79598
0.0302;11.79826;1039.65389;11.79826
0.0302;11.80023;1035.27796;11.80023
0.0303;11.80302;1034.49919;11.80302
0.0303;11.80604;1034.53628;11.80604
0.0304;11.80866;1037.05800;11.80866
0.0304;11.81171;1041.73060;11.81171
0.0305;11.81529;1043.65898;11.81529
0.0305;11.81924;1048.85076;11.81924
0.0306;11.82542;1051.85457;11.82542
0.0306;11.83201;1056.23050;11.83201
0.0307;11.83711;1055.63715;11.83711
0.0307;11.84215;1055.19214;11.84215
0.0308;11.84531;1055.71132;11.84531
0.0308;11.84858;1047.92365;11.84858
0.0309;11.85122;1042.58354;11.85122
0.0309;11.85347;1040.06182;11.85347
0.0310;11.85520;1037.57718;11.85520
0.0310;11.85738;1036.05673;11.85738
0.0311;11.85938;1037.54009;11.85938
0.0311;11.86171;1039.57972;11.86171
0.0312;11.86475;1040.76641;11.86475
0.0312;11.86683;1047.70115;11.86683
0.0312;11.86850;1055.93383;11.86850
0.0313;11.86952;1059.27140;11.86952
0.0313;11.87057;1070.98999;11.87057
0.0314;11.87178;1078.14723;11.87178
0.0314;11.87377;1086.23157;11.87377
0.0315;11.87542;1090.05124;11.87542
0.0315;11.87660;1092.79546;11.87660
0.0316;11.87891;1095.83636;11.87891
0.0316;11.88115;1100.02687;11.88115
0.0317;11.88407;1099.43352;11.88407
0.0317;11.88738;1096.94889;11.88738
0.0318;11.89209;1095.28010;11.89209
0.0318;11.89554;1093.61131;11.89554
0.0319;11.89904;1099.47061;11.89904
0.0319;11.90379;1103.03069;11.90379
0.0320;11.90764;1104.03196;11.90764
0.0320;11.91074;1106.47951;11.91074
0.0321;11.91429;1107.92579;11.91429
0.0321;11.91710;1114.56385;11.91710
0.0322;11.91886;1115.00886;11.91886
0.0322;11.92112;1113.97051;11.92112
0.0323;11.92344;1115.60221;11.92344
0.0323;11.92472;1117.97560;11.92472
0.0324;11.92547;1116.41806;11.92547
0.0324;11.92696;1119.19937;11.92696
0.0324;11.92809;1121.09066;11.92809
0.0325;11.92957;1117.93851;11.92957
0.0325;11.93188;1116.38098;11.93188
0.0326;11.93407;1112.48714;11.93407
0.0326;11.93605;1114.15593;11.93605
0.0327;11.93921;1112.52423;11.93921
0.0327;11.94215;1114.08176;11.94215
0.0328;11.94347;1115.60221;11.94347
0.0328;11.94402;1121.98068;11.94402
0.0329;11.94454;1121.31317;11.94454
0.0329;11.94542;1126.98704;11.94542
0.0330;11.94708;1124.61366;11.94708
0.0330;11.94817;1123.31571;11.94817
0.0331;11.94940;1125.65201;11.94940
0.0331;11.95123;1124.57657;11.95123
0.0332;11.95190;1128.73000;11.95190
0.0332;11.95663;1128.54458;11.95663
0.0333;11.96192;1129.02667;11.96192
0.0333;11.96654;1133.03176;11.96654
0.0334;11.97089;1134.21845;11.97089
0.0334;11.97559;1134.32970;11.97559
0.0335;11.97959;1135.29389;11.97959
0.0335;11.98414;1136.88851;11.98414
0.0336;11.99006;1139.89232;11.99006
0.0336;11.99384;1140.44858;11.99384
0.0336;11.99673;1142.22862;11.99673
0.0337;11.99855;1148.38459;11.99855
0.0337;12.00128;1146.86414;12.00128
0.0338;12.00592;1148.79252;12.00592






Sequence Editor;

