Part protocol
Network name;Part_Maxymos_1_MP-001_2017-02-22_16-05-37_Sila_bl_trans150obr_000019_OK.csv
Protocol version;3.01.00






Result information
Date;2017/02/22
Time;16:05:37
Cycle number;19
Total result;OK
Triggered switch signals
Part serial number;Sila_bl_trans150obr_000019
Measuring program name;BL_rans
Measuring program number;1
Zero X offset;0.00;mm
Tara Y offset;0.00;N









Process values - curve related
Block X;12.01;mm;XMIN-X;9.21;mm
Block Y;1362.95;N;XMIN-Y;0.37;N
Ref X;10.99;mm;XMAX-X;12.01;mm
Peak-peak X;2.80;mm;XMAX-Y;1362.95;N
Peak-peak Y;8232.94;N;YMIN-X;9.24;mm
;;;YMIN-Y;0.30;N
;;;YMAX-X;11.33;mm
;;;YMAX-Y;8233.24;N

Process values - EO related;Result;Entry;Exit;XMIN-X;XMIN-Y;XMAX-X;XMAX-Y;YMIN-Y;YMIN-X;YMAX-Y;YMAX-X;Calculated result;NOK cause;Violation X;Violation Y;Ref X;Ref Y;Switch force;Y-Diff;X-Diff;Force deviation ratio;Click ratio;Contact edge
;;;;mm;N;mm;N;N;mm;N;mm;-;-;-;-;-;-;-;-;-;-;-;-;
EO-01;OK;10.96;;;;;;;;;;;;;;;;
EO-02;OK;;;;;;;;;;;-0.3699;;;;;;
EO-03;OK;;;;;;;;;;;;;;;;;
EO-04;None;
EO-05;None;
EO-06;None;
EO-07;None;
EO-08;None;
EO-09;None;
EO-10;None;


















Evaluation objects settings;Reaction;X reference;Y-Reference;XMin;XMax;YMin;YMax;Entry;Exit;Curve part;Catch zone X;Catch zone Y;EO Name;EO description;Re-entry ignored;Generate statistics;X-Hysteresis;Y-Hysteresis;Down sampling rate;Calc limit min;Calc limit max;Grad limit min;Grad limit max;Hyst limit min;Hyst limit max;Speed limit min;Speed limit max;Time limit min;Time limit max;Is curve inside box;GetRef type;CalcInput1 | dx;CalcInput2 | dx;Calc operation;Average limit min;Average limit max;Break max bending;Visualization offset X;Visualization offset Y;-;-;-
EO-01;LINE-X;ABSOLUTE;ABSOLUTE;10.20;11.50;1000.00;;BELOW;NONE;ANY;+50%;+0%;;;FALSE;TRUE;0.0;0.0;1;;;;;;;;;;;;;;;;;;;0.00;0.00;;;
EO-02;CALC;ABSOLUTE;ABSOLUTE;9.94;;4671.78;;NONE;NONE;ANY;+0%;+0%;;;FALSE;TRUE;0.0;0.0;1;-0.410000;-0.310000;;;;;;;;;;;EO-01 | ENTRY;PV_TABLE_CURVE | YMAX-X;Subtraction;;;;0.00;0.00;;;
EO-03;NO-PASS;ABSOLUTE;ABSOLUTE;9.26;12.25;8743.21;;NONE;NONE;ANY;+0%;+0%;;;FALSE;TRUE;0.0;0.0;1;;;;;;;;;;;;;;;;;;;0.00;0.00;;;
EO-04;OFF
EO-05;OFF
EO-06;OFF
EO-07;OFF
EO-08;OFF
EO-09;OFF
EO-10;OFF



















Switch signal settings;Channel;Threshold at;;Trigger from;Reference;Latch until
Type S1;X;9.86;mm;LEFT;ABSOLUTE;None
Type S2;X;11.48;mm;LEFT;ABSOLUTE;None

















Device information
Device type;maXYmos TL
Device type number;5877A0
Device serial number;4915791
Firmware version;1.1.12 (r21150-TL_v1.1.x)
-
-
-
-
-
IP Address;192.168.21.10
Network name;Maxymos 1
Profibus address;10
-
-
-
Station name;Maxymos 1
Company name;ITW WIP PW
Comment;











Channel-X settings
Use the settings from global setup;True
Sensor-X type;Potentiometer
Unit;mm
Used range from;-5.00;mm
Used range to;25.00;mm
Decimal places;XXXX.XX
Scaling by;Teach-In
Point 1;15.00;mm;69.111;%
Point 2;13.221;mm;13.221;%
Invert signal;FALSE
Filter;OFF
Test point;0.00;mm
Tolerance;0.20;mm
Enable sensor test by dig-input;TRUE
Zoom from;0.00;mm
Zoom to;25.00;mm
Master Measurement Enable;FALSE
Master Measurement Nominal Position;0.00;mm
Encoder interpolation factor;-
Encoder electrical interface;-
Encoder referencing type;-
Encoder referencing edge;-
Encoder pulses per minute;-
Encoder use every nth-mark;-
Reference;-
Encoder reference points;-
Encoder coding;-
Encoder width;-
Encoder optimization;-
Encoder clock frequency;-
Termination resistor;-








Channel-Y settings
Use the settings from global setup;True
Sensor-Y type;Piezo
Unit;N
Used range from;0.00;N
Used range to;190000.00;N
Decimal places;XXXX.XX
Scaling by;Calibration Sheet
Sensitivity;-4.3000;pC/N
-
Invert signal;FALSE
Filter;500 Hz
Piezo reset;TRUE
Test point;0.00;N
Tolerance;0.00;N
Enable sensor test by dig-input;FALSE
Zoom from;0.00;N
Zoom to;1000.00;N












Cycle control settings
Use the settings from global setup;True
Measuring function;Y (X)
Delta-X;User-Defined;0.0100;mm
START condition;Threshold-X;9.00;mm;Trigger from;LEFT
STOP condition;Threshold-X;12.00;mm;Trigger from;LEFT
Cycle time out;1.00;s
Turning point RIGHT;YMAX
Turning point LEFT;NONE
Cut curve at;NONE










Evaluation settings
Capture only first NOK-EO for statistics;False
Hysteresis X;0.0;%
Hysteresis Y;0.0;%






Trigger Y settings
Threshold at;1607.52;N
Value X at TRIGGER Y;0.00;mm
Approach from;BELOW






Block settings
Value X at block;XMAX
Block at;0.00;mm







Measuring curve
Number of measuring points;218
Ref. Graph on;ABSOLUTE
Curve segments;0;0;165;165;


Time;X(ABSOLUTE);Y;X (ABSOLUTE)


s;mm;N;mm
0.0000;9.21103;0.37084;9.21103
0.0002;9.23171;0.37084;9.23171
0.0003;9.24257;0.29667;9.24257
0.0004;9.25398;0.29667;9.25398
0.0006;9.26599;0.37084;9.26599
0.0007;9.27622;0.44501;9.27622
0.0009;9.28855;1.00127;9.28855
0.0011;9.30241;2.15088;9.30241
0.0011;9.31744;2.70714;9.31744
0.0013;9.33187;7.45391;9.33187
0.0014;9.34253;10.38356;9.34253
0.0017;9.35640;21.50880;9.35640
0.0019;9.36917;30.00107;9.36917
0.0020;9.38455;34.30283;9.38455
0.0021;9.39796;36.45371;9.39796
0.0022;9.41169;40.45880;9.41169
0.0024;9.42589;47.09686;9.42589
0.0025;9.43618;51.02778;9.43618
0.0027;9.45236;52.14030;9.45236
0.0028;9.46534;52.36281;9.46534
0.0030;9.48012;52.62240;9.48012
0.0032;9.49024;53.95742;9.49024
0.0034;9.50877;57.22083;9.50877
0.0036;9.52536;63.30263;9.52536
0.0036;9.53716;64.63766;9.53716
0.0037;9.54807;66.04685;9.54807
0.0038;9.56056;70.20028;9.56056
0.0040;9.57407;75.24372;9.57407
0.0043;9.58765;80.47259;9.58765
0.0044;9.59844;82.25262;9.59844
0.0045;9.61270;86.51730;9.61270
0.0047;9.62796;99.86759;9.62796
0.0049;9.63802;108.02610;9.63802
0.0050;9.64808;107.02483;9.64808
0.0052;9.66555;104.42894;9.66555
0.0054;9.67595;103.24225;9.67595
0.0055;9.68959;105.24479;9.68959
0.0057;9.70172;114.36749;9.70172
0.0059;9.71931;121.30222;9.71931
0.0061;9.73209;126.93901;9.73209
0.0062;9.74493;128.64488;9.74493
0.0063;9.76101;130.53618;9.76101
0.0065;9.77265;133.28040;9.77265
0.0065;9.78267;134.13334;9.78267
0.0067;9.79325;137.28549;9.79325
0.0070;9.80438;140.25222;9.80438
0.0071;9.81665;143.96063;9.81665
0.0072;9.82980;148.00281;9.82980
0.0074;9.84068;159.64723;9.84068
0.0075;9.85655;163.24439;9.85655
0.0077;9.86876;168.43617;9.86876
0.0079;9.88024;171.47707;9.88024
0.0081;9.89158;175.96425;9.89158
0.0082;9.90479;178.30055;9.90479
0.0084;9.91649;180.71102;9.91649
0.0086;9.93009;185.68029;9.93009
0.0087;9.94348;192.46669;9.94348
0.0088;9.96672;203.62902;9.96672
0.0091;9.97909;211.49086;9.97909
0.0093;9.99127;209.74790;9.99127
0.0094;10.00148;208.22745;10.00148
0.0095;10.01567;207.48577;10.01567
0.0097;10.03071;215.57011;10.03071
0.0098;10.04542;219.72353;10.04542
0.0100;10.05877;222.43068;10.05877
0.0101;10.07046;221.31815;10.07046
0.0103;10.08202;219.83479;10.08202
0.0105;10.09237;221.05856;10.09237
0.0107;10.10556;227.06619;10.10556
0.0108;10.11576;232.77715;10.11576
0.0108;10.12803;239.30396;10.12803
0.0110;10.14113;247.87040;10.14113
0.0111;10.15432;252.02382;10.15432
0.0112;10.16496;256.77059;10.16496
0.0113;10.17708;259.29231;10.17708
0.0114;10.18813;261.29486;10.18813
0.0115;10.19993;262.62989;10.19993
0.0118;10.21062;263.77949;10.21062
0.0119;10.22395;265.44828;10.22395
0.0120;10.23832;267.56208;10.23832
0.0121;10.25076;272.97636;10.25076
0.0123;10.26660;278.65023;10.26660
0.0124;10.27725;281.72822;10.27725
0.0125;10.28914;281.91364;10.28914
0.0127;10.30292;281.17196;10.30292
0.0130;10.31502;287.95835;10.31502
0.0131;10.32529;292.89054;10.32529
0.0132;10.33861;300.64113;10.33861
0.0133;10.35397;304.60913;10.35397
0.0135;10.36829;307.65003;10.36829
0.0137;10.38061;310.09759;10.38061
0.0138;10.39242;312.76764;10.39242
0.0141;10.40262;320.51823;10.40262
0.0142;10.41511;327.67547;10.41511
0.0144;10.42728;336.16774;10.42728
0.0145;10.44244;346.18046;10.44244
0.0147;10.45435;364.24043;10.45435
0.0148;10.47254;380.96538;10.47254
0.0150;10.48748;404.10588;10.48748
0.0152;10.50248;421.53543;10.50248
0.0153;10.51712;438.66830;10.51712
0.0155;10.52754;455.02241;10.52754
0.0157;10.53968;486.06183;10.53968
0.0158;10.55792;495.62954;10.55792
0.0160;10.57078;509.46193;10.57078
0.0162;10.58568;528.74568;10.58568
0.0163;10.59693;544.43227;10.59693
0.0165;10.60712;566.42317;10.60712
0.0167;10.62214;583.48187;10.62214
0.0168;10.63440;600.57766;10.63440
0.0169;10.64448;617.11719;10.64448
0.0171;10.65776;638.06973;10.65776
0.0172;10.66837;643.03900;10.66837
0.0175;10.68024;668.36747;10.68024
0.0177;10.69074;684.68449;10.69074
0.0179;10.70681;693.73302;10.70681
0.0180;10.71734;703.11531;10.71734
0.0181;10.72904;713.01678;10.72904
0.0182;10.74625;719.72901;10.74625
0.0184;10.75892;729.81589;10.75892
0.0185;10.77033;740.16237;10.77033
0.0187;10.78065;754.88477;10.78065
0.0189;10.79073;766.04710;10.79073
0.0191;10.80354;783.10580;10.80354
0.0192;10.81754;791.74641;10.81754
0.0193;10.83265;796.67860;10.83265
0.0195;10.84606;803.09415;10.84606
0.0197;10.85967;811.28975;10.85967
0.0198;10.87588;817.74239;10.87588
0.0201;10.88861;829.68348;10.88861
0.0204;10.89961;847.11303;10.89961
0.0205;10.91487;859.35080;10.91487
0.0206;10.92546;883.34424;10.92546
0.0207;10.94215;913.82740;10.94215
0.0208;10.95543;961.85136;10.95543
0.0210;10.96777;1123.72364;10.96777
0.0212;10.97854;1371.55695;10.97854
0.0214;10.98889;1676.12900;10.98889
0.0215;11.00101;1837.22251;11.00101
0.0217;11.01534;2156.47988;11.01534
0.0220;11.02674;2594.62900;11.02674
0.0222;11.03809;2909.25085;11.03809
0.0224;11.04840;3080.28291;11.04840
0.0226;11.05865;3300.26603;11.05865
0.0228;11.07126;3576.06079;11.07126
0.0230;11.08231;3851.74429;11.08231
0.0232;11.09569;4069.68779;11.09569
0.0235;11.10781;4397.84535;11.10781
0.0242;11.11889;5275.84947;11.11889
0.0244;11.13196;5535.92055;11.13196
0.0245;11.14242;5670.38765;11.14242
0.0247;11.15423;5945.32947;11.15423
0.0249;11.16472;6224.64722;11.16472
0.0251;11.17685;6503.74246;11.17685
0.0253;11.18976;6843.54444;11.18976
0.0255;11.20161;7037.64284;11.20161
0.0257;11.21700;7280.69230;11.21700
0.0259;11.22910;7503.27131;11.22910
0.0260;11.24285;7655.20503;11.24285
0.0262;11.25708;7792.41636;11.25708
0.0264;11.26986;7948.83726;11.26986
0.0265;11.28001;8043.92100;11.28001
0.0267;11.29211;8139.89476;11.29211
0.0268;11.30524;8189.25375;11.30524
0.0270;11.31637;8219.88525;11.31637
0.0272;11.32828;8233.23554;11.32828
0.0274;11.33949;8218.32771;11.33949
0.0275;11.35098;8201.63985;11.35098
0.0276;11.36561;8151.57626;11.36561
0.0279;11.37677;8035.83666;11.37677
0.0282;11.38858;7897.17905;11.38858
0.0283;11.40199;7792.15677;11.40199
0.0285;11.41688;7666.25611;11.41688
0.0286;11.42693;7563.45887;11.42693
0.0287;11.44267;7423.76291;11.44267
0.0288;11.45855;7210.64035;11.45855
0.0288;11.47061;6891.82799;11.47061
0.0289;11.48126;6458.09188;11.48126
0.0290;11.49244;5926.63906;11.49244
0.0292;11.50518;4990.89493;11.50518
0.0293;11.51786;4306.35878;11.51786
0.0294;11.53815;3618.04004;11.53815
0.0295;11.55645;2972.88724;11.55645
0.0295;11.56680;2682.07341;11.56680
0.0297;11.58280;1984.26113;11.58280
0.0298;11.59428;1667.45131;11.59428
0.0299;11.60653;1448.76613;11.60653
0.0300;11.62128;1305.25051;11.62128
0.0300;11.63845;1220.62450;11.63845
0.0301;11.64879;1195.18478;11.64879
0.0302;11.66397;1165.59163;11.66397
0.0304;11.67504;1121.57276;11.67504
0.0305;11.69290;1093.12922;11.69290
0.0305;11.70459;1080.48353;11.70459
0.0306;11.71797;1064.24068;11.71797
0.0307;11.72994;1061.12561;11.72994
0.0308;11.74529;1064.94527;11.74529
0.0310;11.76018;1068.76494;11.76018
0.0312;11.77753;1059.23432;11.77753
0.0312;11.78830;1046.81113;11.78830
0.0313;11.80015;1030.01201;11.80015
0.0314;11.81527;1013.06456;11.81527
0.0316;11.82828;998.56466;11.82828
0.0318;11.84042;1000.08511;11.84042
0.0321;11.85146;981.28345;11.85146
0.0325;11.86469;996.56212;11.86469
0.0326;11.87976;1020.66681;11.87976
0.0330;11.89217;1068.43118;11.89217
0.0333;11.90403;1118.27227;11.90403
0.0338;11.91447;1194.81394;11.91447
0.0340;11.92487;1221.66285;11.92487
0.0344;11.93654;1299.87331;11.93654
0.0347;11.94866;1317.97037;11.94866
0.0348;11.96032;1333.43445;11.96032
0.0349;11.97137;1345.70930;11.97137
0.0350;11.98328;1356.79746;11.98328
0.0351;11.99879;1362.80509;11.99879
0.0351;12.00665;1362.95343;12.00665
