Part protocol
Network name;Part_Maxymos_1_MP-001_2017-02-22_16-05-28_Sila_bl_trans150obr_000002_OK.csv
Protocol version;3.01.00






Result information
Date;2017/02/22
Time;16:05:28
Cycle number;2
Total result;OK
Triggered switch signals
Part serial number;Sila_bl_trans150obr_000002
Measuring program name;BL_rans
Measuring program number;1
Zero X offset;0.00;mm
Tara Y offset;0.00;N









Process values - curve related
Block X;12.01;mm;XMIN-X;9.19;mm
Block Y;1348.53;N;XMIN-Y;-0.04;N
Ref X;10.99;mm;XMAX-X;12.01;mm
Peak-peak X;2.82;mm;XMAX-Y;1348.53;N
Peak-peak Y;8243.32;N;YMIN-X;9.19;mm
;;;YMIN-Y;-0.04;N
;;;YMAX-X;11.33;mm
;;;YMAX-Y;8243.29;N

Process values - EO related;Result;Entry;Exit;XMIN-X;XMIN-Y;XMAX-X;XMAX-Y;YMIN-Y;YMIN-X;YMAX-Y;YMAX-X;Calculated result;NOK cause;Violation X;Violation Y;Ref X;Ref Y;Switch force;Y-Diff;X-Diff;Force deviation ratio;Click ratio;Contact edge
;;;;mm;N;mm;N;N;mm;N;mm;-;-;-;-;-;-;-;-;-;-;-;-;
EO-01;OK;10.95;;;;;;;;;;;;;;;;
EO-02;OK;;;;;;;;;;;-0.3711;;;;;;
EO-03;OK;;;;;;;;;;;;;;;;;
EO-04;None;
EO-05;None;
EO-06;None;
EO-07;None;
EO-08;None;
EO-09;None;
EO-10;None;


















Evaluation objects settings;Reaction;X reference;Y-Reference;XMin;XMax;YMin;YMax;Entry;Exit;Curve part;Catch zone X;Catch zone Y;EO Name;EO description;Re-entry ignored;Generate statistics;X-Hysteresis;Y-Hysteresis;Down sampling rate;Calc limit min;Calc limit max;Grad limit min;Grad limit max;Hyst limit min;Hyst limit max;Speed limit min;Speed limit max;Time limit min;Time limit max;Is curve inside box;GetRef type;CalcInput1 | dx;CalcInput2 | dx;Calc operation;Average limit min;Average limit max;Break max bending;Visualization offset X;Visualization offset Y;-;-;-
EO-01;LINE-X;ABSOLUTE;ABSOLUTE;10.20;11.50;1000.00;;BELOW;NONE;ANY;+50%;+0%;;;FALSE;TRUE;0.0;0.0;1;;;;;;;;;;;;;;;;;;;0.00;0.00;;;
EO-02;CALC;ABSOLUTE;ABSOLUTE;9.94;;4671.78;;NONE;NONE;ANY;+0%;+0%;;;FALSE;TRUE;0.0;0.0;1;-0.410000;-0.310000;;;;;;;;;;;EO-01 | ENTRY;PV_TABLE_CURVE | YMAX-X;Subtraction;;;;0.00;0.00;;;
EO-03;NO-PASS;ABSOLUTE;ABSOLUTE;9.26;12.25;8743.21;;NONE;NONE;ANY;+0%;+0%;;;FALSE;TRUE;0.0;0.0;1;;;;;;;;;;;;;;;;;;;0.00;0.00;;;
EO-04;OFF
EO-05;OFF
EO-06;OFF
EO-07;OFF
EO-08;OFF
EO-09;OFF
EO-10;OFF



















Switch signal settings;Channel;Threshold at;;Trigger from;Reference;Latch until
Type S1;X;9.86;mm;LEFT;ABSOLUTE;None
Type S2;X;11.48;mm;LEFT;ABSOLUTE;None

















Device information
Device type;maXYmos TL
Device type number;5877A0
Device serial number;4915791
Firmware version;1.1.12 (r21150-TL_v1.1.x)
-
-
-
-
-
IP Address;192.168.21.10
Network name;Maxymos 1
Profibus address;10
-
-
-
Station name;Maxymos 1
Company name;ITW WIP PW
Comment;











Channel-X settings
Use the settings from global setup;True
Sensor-X type;Potentiometer
Unit;mm
Used range from;-5.00;mm
Used range to;25.00;mm
Decimal places;XXXX.XX
Scaling by;Teach-In
Point 1;15.00;mm;69.111;%
Point 2;13.221;mm;13.221;%
Invert signal;FALSE
Filter;OFF
Test point;0.00;mm
Tolerance;0.20;mm
Enable sensor test by dig-input;TRUE
Zoom from;0.00;mm
Zoom to;25.00;mm
Master Measurement Enable;FALSE
Master Measurement Nominal Position;0.00;mm
Encoder interpolation factor;-
Encoder electrical interface;-
Encoder referencing type;-
Encoder referencing edge;-
Encoder pulses per minute;-
Encoder use every nth-mark;-
Reference;-
Encoder reference points;-
Encoder coding;-
Encoder width;-
Encoder optimization;-
Encoder clock frequency;-
Termination resistor;-








Channel-Y settings
Use the settings from global setup;True
Sensor-Y type;Piezo
Unit;N
Used range from;0.00;N
Used range to;190000.00;N
Decimal places;XXXX.XX
Scaling by;Calibration Sheet
Sensitivity;-4.3000;pC/N
-
Invert signal;FALSE
Filter;500 Hz
Piezo reset;TRUE
Test point;0.00;N
Tolerance;0.00;N
Enable sensor test by dig-input;FALSE
Zoom from;0.00;N
Zoom to;1000.00;N












Cycle control settings
Use the settings from global setup;True
Measuring function;Y (X)
Delta-X;User-Defined;0.0100;mm
START condition;Threshold-X;9.00;mm;Trigger from;LEFT
STOP condition;Threshold-X;12.00;mm;Trigger from;LEFT
Cycle time out;1.00;s
Turning point RIGHT;YMAX
Turning point LEFT;NONE
Cut curve at;NONE










Evaluation settings
Capture only first NOK-EO for statistics;False
Hysteresis X;0.0;%
Hysteresis Y;0.0;%






Trigger Y settings
Threshold at;1607.52;N
Value X at TRIGGER Y;0.00;mm
Approach from;BELOW






Block settings
Value X at block;XMAX
Block at;0.00;mm







Measuring curve
Number of measuring points;219
Ref. Graph on;ABSOLUTE
Curve segments;0;167;166;219;


Time;X(ABSOLUTE);Y;X (ABSOLUTE)


s;mm;N;mm
0.0000;9.18504;-0.03708;9.18504
0.0002;9.20486;0.66751;9.20486
0.0002;9.21727;0.85294;9.21727
0.0005;9.23018;2.15088;9.23018
0.0006;9.24409;3.26340;9.24409
0.0007;9.25473;6.04471;9.25473
0.0008;9.26556;8.71477;9.26556
0.0010;9.27566;13.98072;9.27566
0.0012;9.28693;22.10215;9.28693
0.0013;9.29896;27.88727;9.29896
0.0014;9.31720;31.18776;9.31720
0.0015;9.32985;35.19285;9.32985
0.0018;9.34198;40.08796;9.34198
0.0020;9.35383;42.35009;9.35383
0.0022;9.36802;44.38972;9.36802
0.0023;9.38749;46.02142;9.38749
0.0024;9.40020;47.94979;9.40020
0.0024;9.41098;50.28610;9.41098
0.0027;9.42347;57.48042;9.42347
0.0028;9.43416;62.33844;9.43416
0.0029;9.44942;65.45351;9.44942
0.0031;9.46437;69.45860;9.46437
0.0032;9.47864;72.35116;9.47864
0.0034;9.49025;74.13120;9.49025
0.0036;9.50037;74.61329;9.50037
0.0038;9.51166;74.42787;9.51166
0.0039;9.53269;74.35370;9.53269
0.0040;9.54741;74.87288;9.54741
0.0041;9.55771;75.79998;9.55771
0.0042;9.56922;77.28335;9.56922
0.0045;9.57943;94.71290;9.57943
0.0046;9.59165;104.79978;9.59165
0.0047;9.60218;113.44039;9.60218
0.0048;9.61772;120.44929;9.61772
0.0051;9.63037;119.04009;9.63037
0.0052;9.64524;115.96211;9.64524
0.0054;9.65725;113.73706;9.65725
0.0056;9.67380;115.99919;9.67380
0.0058;9.68441;120.78305;9.68441
0.0059;9.70068;122.22933;9.70068
0.0061;9.71188;125.19606;9.71188
0.0062;9.72253;130.72160;9.72253
0.0064;9.73812;140.62306;9.73812
0.0066;9.75397;148.18823;9.75397
0.0067;9.76521;152.30457;9.76521
0.0068;9.77659;155.30838;9.77659
0.0069;9.79075;158.49762;9.79075
0.0072;9.80669;165.43235;9.80669
0.0073;9.81794;167.62032;9.81794
0.0075;9.83012;168.06533;9.83012
0.0076;9.84268;168.21366;9.84268
0.0078;9.85642;170.99497;9.85642
0.0080;9.86697;175.29673;9.86697
0.0081;9.88058;178.96806;9.88058
0.0083;9.89198;185.93988;9.89198
0.0084;9.90725;191.46542;9.90725
0.0087;9.91985;215.97804;9.91985
0.0089;9.93605;225.32324;9.93605
0.0090;9.94771;223.50612;9.94771
0.0091;9.95963;219.76062;9.95963
0.0093;9.97042;213.12256;9.97042
0.0094;9.98492;208.44996;9.98492
0.0096;9.99585;209.11747;9.99585
0.0097;10.00893;215.68136;10.00893
0.0099;10.02311;219.20436;10.02311
0.0100;10.03593;221.42941;10.03593
0.0101;10.04815;223.54320;10.04815
0.0102;10.05952;226.69535;10.05952
0.0104;10.07299;235.48429;10.07299
0.0106;10.08885;244.05073;10.08885
0.0108;10.10097;261.88820;10.10097
0.0109;10.11292;264.07617;10.11292
0.0110;10.12321;264.33576;10.12321
0.0112;10.14198;262.33321;10.14198
0.0113;10.15363;260.92402;10.15363
0.0115;10.16412;258.77314;10.16412
0.0116;10.18074;257.99437;10.18074
0.0117;10.19128;258.51355;10.19128
0.0119;10.20465;265.22578;10.20465
0.0121;10.21812;282.13614;10.21812
0.0122;10.23651;289.77548;10.23651
0.0123;10.24732;292.22303;10.24732
0.0125;10.25765;292.85346;10.25765
0.0126;10.27444;292.55679;10.27444
0.0128;10.28521;294.11432;10.28521
0.0129;10.29623;296.26520;10.29623
0.0131;10.30660;300.30737;10.30660
0.0132;10.32154;301.08614;10.32154
0.0134;10.33703;301.49407;10.33703
0.0135;10.35036;303.45952;10.35036
0.0136;10.36138;304.53496;10.36138
0.0138;10.37272;311.02469;10.37272
0.0139;10.38554;317.40316;10.38554
0.0141;10.39746;325.67293;10.39746
0.0144;10.40841;336.53858;10.40841
0.0145;10.42447;345.10502;10.42447
0.0146;10.43529;351.29807;10.43529
0.0147;10.44778;360.53202;10.44778
0.0149;10.46254;373.17771;10.46254
0.0150;10.47255;380.14953;10.47255
0.0152;10.48620;396.72614;10.48620
0.0153;10.49706;406.62760;10.49706
0.0154;10.50737;417.45617;10.50737
0.0156;10.52156;434.55196;10.52156
0.0158;10.53329;462.99550;10.53329
0.0160;10.54636;486.46976;10.54636
0.0161;10.55746;498.52211;10.55746
0.0162;10.57043;516.24833;10.57043
0.0164;10.58317;532.86202;10.58317
0.0166;10.59905;552.66495;10.59905
0.0168;10.61024;575.17503;10.61024
0.0169;10.62372;584.29772;10.62372
0.0170;10.63398;598.46387;10.63398
0.0172;10.65112;617.22844;10.65112
0.0174;10.66491;635.39967;10.66491
0.0176;10.67708;653.90466;10.67708
0.0179;10.69003;677.37892;10.69003
0.0180;10.71123;695.36473;10.71123
0.0182;10.72434;711.16257;10.72434
0.0184;10.73852;721.73155;10.73852
0.0185;10.75149;728.59212;10.75149
0.0186;10.76569;735.34143;10.76569
0.0189;10.77717;755.18144;10.77717
0.0192;10.78962;774.76187;10.78962
0.0192;10.80185;781.54827;10.80185
0.0194;10.81279;792.08017;10.81279
0.0195;10.82322;799.38574;10.82322
0.0196;10.83825;806.65423;10.83825
0.0198;10.85135;820.70912;10.85135
0.0199;10.86202;830.31391;10.86202
0.0200;10.87228;836.21029;10.87228
0.0202;10.88398;844.22047;10.88398
0.0205;10.89604;860.01831;10.89604
0.0207;10.91014;870.55021;10.91014
0.0208;10.92217;881.93504;10.92217
0.0209;10.93723;920.46546;10.93723
0.0210;10.95183;968.48942;10.95183
0.0212;10.96280;1082.93108;10.96280
0.0213;10.97312;1249.25345;10.97312
0.0216;10.98940;1613.82764;10.98940
0.0217;11.00490;1938.53638;11.00490
0.0219;11.01837;2177.24700;11.01837
0.0223;11.03161;2800.70557;11.03161
0.0225;11.04421;3032.29603;11.04421
0.0227;11.05457;3196.80128;11.05457
0.0229;11.06666;3470.03723;11.06666
0.0232;11.07855;3803.75741;11.07855
0.0234;11.09449;4026.92977;11.09449
0.0239;11.10585;4648.71956;11.10585
0.0244;11.11837;5242.58500;11.11837
0.0246;11.12987;5497.20471;11.12987
0.0247;11.13995;5628.40840;11.13995
0.0249;11.15171;5964.76156;11.15171
0.0251;11.16325;6238.85044;11.16325
0.0252;11.17456;6444.74159;11.17456
0.0255;11.18525;6781.46559;11.18525
0.0257;11.20173;7097.23705;11.20173
0.0259;11.21351;7272.16294;11.21351
0.0261;11.22788;7486.73178;11.22788
0.0262;11.23866;7633.39956;11.23866
0.0264;11.24876;7767.34748;11.24876
0.0265;11.26479;7923.24920;11.26479
0.0268;11.27967;8076.62921;11.27967
0.0269;11.29130;8124.28233;11.29130
0.0271;11.30498;8195.81764;11.30498
0.0272;11.32023;8228.48877;11.32023
0.0274;11.32600;8243.28534;11.32600
0.0275;11.33104;8238.61274;11.33104
0.0276;11.34235;8226.44914;11.34235
0.0277;11.35640;8194.89054;11.35640
0.0279;11.36755;8128.91785;11.36755
0.0282;11.37913;8010.47110;11.37913
0.0284;11.38961;7889.61389;11.38961
0.0286;11.40402;7746.43202;11.40402
0.0287;11.41825;7621.64389;11.41825
0.0288;11.43121;7524.70594;11.43121
0.0289;11.44722;7396.20939;11.44722
0.0290;11.45847;7196.43713;11.45847
0.0291;11.46989;6888.08250;11.46989
0.0292;11.48160;6455.38474;11.48160
0.0293;11.49476;5601.67073;11.49476
0.0295;11.50848;4579.81723;11.50848
0.0296;11.52640;3868.58049;11.52640
0.0297;11.54425;3191.68367;11.54425
0.0298;11.56221;2595.22235;11.56221
0.0299;11.57410;2114.57480;11.57410
0.0300;11.58905;1619.72402;11.58905
0.0301;11.60367;1415.68708;11.60367
0.0302;11.62157;1283.81587;11.62157
0.0303;11.63703;1205.71667;11.63703
0.0304;11.65284;1163.10699;11.65284
0.0305;11.66530;1136.99976;11.66530
0.0307;11.67928;1085.04488;11.67928
0.0307;11.68972;1072.51044;11.68972
0.0308;11.70710;1055.15506;11.70710
0.0309;11.72130;1051.26123;11.72130
0.0310;11.73387;1056.74968;11.73387
0.0311;11.74865;1063.57316;11.74865
0.0312;11.75878;1066.05780;11.75878
0.0314;11.77667;1053.33794;11.77667
0.0315;11.79176;1031.38413;11.79176
0.0316;11.80847;1015.36378;11.80847
0.0317;11.81975;1002.97767;11.81975
0.0319;11.83274;995.37543;11.83274
0.0321;11.84308;991.48159;11.84308
0.0324;11.85392;961.85136;11.85392
0.0327;11.86421;994.81916;11.86421
0.0330;11.87686;1036.76133;11.87686
0.0333;11.88724;1076.14468;11.88724
0.0336;11.89936;1135.14555;11.89936
0.0339;11.91224;1160.62236;11.91224
0.0343;11.92476;1221.55160;11.92476
0.0346;11.93582;1278.10492;11.93582
0.0348;11.94777;1290.45393;11.94777
0.0350;11.95861;1318.67497;11.95861
0.0351;11.96862;1332.24776;11.96862
0.0352;11.98200;1343.66968;11.98200
0.0353;11.99464;1350.15940;11.99464
0.0354;12.00816;1348.52770;12.00816
