Part protocol
Network name;Part_Maxymos_1_MP-001_2017-02-22_16-05-33_Sila_bl_trans150obr_000012_OK.csv
Protocol version;3.01.00






Result information
Date;2017/02/22
Time;16:05:33
Cycle number;12
Total result;OK
Triggered switch signals
Part serial number;Sila_bl_trans150obr_000012
Measuring program name;BL_rans
Measuring program number;1
Zero X offset;0.00;mm
Tara Y offset;0.00;N









Process values - curve related
Block X;12.00;mm;XMIN-X;9.15;mm
Block Y;1386.43;N;XMIN-Y;-0.37;N
Ref X;10.99;mm;XMAX-X;12.00;mm
Peak-peak X;2.85;mm;XMAX-Y;1386.43;N
Peak-peak Y;8271.58;N;YMIN-X;9.15;mm
;;;YMIN-Y;-0.37;N
;;;YMAX-X;11.33;mm
;;;YMAX-Y;8271.21;N

Process values - EO related;Result;Entry;Exit;XMIN-X;XMIN-Y;XMAX-X;XMAX-Y;YMIN-Y;YMIN-X;YMAX-Y;YMAX-X;Calculated result;NOK cause;Violation X;Violation Y;Ref X;Ref Y;Switch force;Y-Diff;X-Diff;Force deviation ratio;Click ratio;Contact edge
;;;;mm;N;mm;N;N;mm;N;mm;-;-;-;-;-;-;-;-;-;-;-;-;
EO-01;OK;10.96;;;;;;;;;;;;;;;;
EO-02;OK;;;;;;;;;;;-0.3687;;;;;;
EO-03;OK;;;;;;;;;;;;;;;;;
EO-04;None;
EO-05;None;
EO-06;None;
EO-07;None;
EO-08;None;
EO-09;None;
EO-10;None;


















Evaluation objects settings;Reaction;X reference;Y-Reference;XMin;XMax;YMin;YMax;Entry;Exit;Curve part;Catch zone X;Catch zone Y;EO Name;EO description;Re-entry ignored;Generate statistics;X-Hysteresis;Y-Hysteresis;Down sampling rate;Calc limit min;Calc limit max;Grad limit min;Grad limit max;Hyst limit min;Hyst limit max;Speed limit min;Speed limit max;Time limit min;Time limit max;Is curve inside box;GetRef type;CalcInput1 | dx;CalcInput2 | dx;Calc operation;Average limit min;Average limit max;Break max bending;Visualization offset X;Visualization offset Y;-;-;-
EO-01;LINE-X;ABSOLUTE;ABSOLUTE;10.20;11.50;1000.00;;BELOW;NONE;ANY;+50%;+0%;;;FALSE;TRUE;0.0;0.0;1;;;;;;;;;;;;;;;;;;;0.00;0.00;;;
EO-02;CALC;ABSOLUTE;ABSOLUTE;9.94;;4671.78;;NONE;NONE;ANY;+0%;+0%;;;FALSE;TRUE;0.0;0.0;1;-0.410000;-0.310000;;;;;;;;;;;EO-01 | ENTRY;PV_TABLE_CURVE | YMAX-X;Subtraction;;;;0.00;0.00;;;
EO-03;NO-PASS;ABSOLUTE;ABSOLUTE;9.26;12.25;8743.21;;NONE;NONE;ANY;+0%;+0%;;;FALSE;TRUE;0.0;0.0;1;;;;;;;;;;;;;;;;;;;0.00;0.00;;;
EO-04;OFF
EO-05;OFF
EO-06;OFF
EO-07;OFF
EO-08;OFF
EO-09;OFF
EO-10;OFF



















Switch signal settings;Channel;Threshold at;;Trigger from;Reference;Latch until
Type S1;X;9.86;mm;LEFT;ABSOLUTE;None
Type S2;X;11.48;mm;LEFT;ABSOLUTE;None

















Device information
Device type;maXYmos TL
Device type number;5877A0
Device serial number;4915791
Firmware version;1.1.12 (r21150-TL_v1.1.x)
-
-
-
-
-
IP Address;192.168.21.10
Network name;Maxymos 1
Profibus address;10
-
-
-
Station name;Maxymos 1
Company name;ITW WIP PW
Comment;











Channel-X settings
Use the settings from global setup;True
Sensor-X type;Potentiometer
Unit;mm
Used range from;-5.00;mm
Used range to;25.00;mm
Decimal places;XXXX.XX
Scaling by;Teach-In
Point 1;15.00;mm;69.111;%
Point 2;13.221;mm;13.221;%
Invert signal;FALSE
Filter;OFF
Test point;0.00;mm
Tolerance;0.20;mm
Enable sensor test by dig-input;TRUE
Zoom from;0.00;mm
Zoom to;25.00;mm
Master Measurement Enable;FALSE
Master Measurement Nominal Position;0.00;mm
Encoder interpolation factor;-
Encoder electrical interface;-
Encoder referencing type;-
Encoder referencing edge;-
Encoder pulses per minute;-
Encoder use every nth-mark;-
Reference;-
Encoder reference points;-
Encoder coding;-
Encoder width;-
Encoder optimization;-
Encoder clock frequency;-
Termination resistor;-








Channel-Y settings
Use the settings from global setup;True
Sensor-Y type;Piezo
Unit;N
Used range from;0.00;N
Used range to;190000.00;N
Decimal places;XXXX.XX
Scaling by;Calibration Sheet
Sensitivity;-4.3000;pC/N
-
Invert signal;FALSE
Filter;500 Hz
Piezo reset;TRUE
Test point;0.00;N
Tolerance;0.00;N
Enable sensor test by dig-input;FALSE
Zoom from;0.00;N
Zoom to;1000.00;N












Cycle control settings
Use the settings from global setup;True
Measuring function;Y (X)
Delta-X;User-Defined;0.0100;mm
START condition;Threshold-X;9.00;mm;Trigger from;LEFT
STOP condition;Threshold-X;12.00;mm;Trigger from;LEFT
Cycle time out;1.00;s
Turning point RIGHT;YMAX
Turning point LEFT;NONE
Cut curve at;NONE










Evaluation settings
Capture only first NOK-EO for statistics;False
Hysteresis X;0.0;%
Hysteresis Y;0.0;%






Trigger Y settings
Threshold at;1607.52;N
Value X at TRIGGER Y;0.00;mm
Approach from;BELOW






Block settings
Value X at block;XMAX
Block at;0.00;mm







Measuring curve
Number of measuring points;226
Ref. Graph on;ABSOLUTE
Curve segments;0;0;173;173;


Time;X(ABSOLUTE);Y;X (ABSOLUTE)


s;mm;N;mm
0.0000;9.14749;-0.37084;9.14749
0.0001;9.16137;-0.18542;9.16137
0.0004;9.17694;0.74168;9.17694
0.0005;9.19068;1.52045;9.19068
0.0006;9.20108;3.74550;9.20108
0.0008;9.21124;7.60225;9.21124
0.0009;9.22390;10.97691;9.22390
0.0010;9.23735;16.53953;9.23735
0.0012;9.25237;22.06506;9.25237
0.0013;9.26291;26.84892;9.26291
0.0014;9.27698;29.33356;9.27698
0.0016;9.28870;33.52406;9.28870
0.0018;9.29870;35.56369;9.29870
0.0019;9.31235;37.08414;9.31235
0.0020;9.32647;39.86545;9.32647
0.0022;9.33819;43.61095;9.33819
0.0024;9.34840;52.25155;9.34840
0.0025;9.35958;58.18502;9.35958
0.0027;9.37696;64.34098;9.37696
0.0028;9.39160;68.42024;9.39160
0.0029;9.40313;72.31407;9.40313
0.0030;9.41439;75.87415;9.41439
0.0032;9.42721;81.39969;9.42721
0.0033;9.43723;83.99558;9.43723
0.0034;9.44890;84.95977;9.44890
0.0036;9.46413;85.73853;9.46413
0.0036;9.47520;86.07229;9.47520
0.0037;9.48799;86.40605;9.48799
0.0041;9.50208;89.48403;9.50208
0.0043;9.51359;93.63746;9.51359
0.0044;9.53068;96.23335;9.53068
0.0045;9.54384;100.57219;9.54384
0.0046;9.55499;103.53892;9.55499
0.0048;9.57172;107.72943;9.57172
0.0050;9.58402;114.03373;9.58402
0.0052;9.59971;115.66544;9.59971
0.0053;9.60985;116.22170;9.60985
0.0054;9.62291;116.51837;9.62291
0.0057;9.63566;117.03755;9.63566
0.0058;9.64661;118.03882;9.64661
0.0060;9.65826;128.31113;9.65826
0.0060;9.66849;137.65633;9.66849
0.0062;9.68123;154.52962;9.68123
0.0064;9.69124;160.20349;9.69124
0.0065;9.70419;161.46435;9.70419
0.0067;9.71727;161.61269;9.71727
0.0069;9.72745;162.72521;9.72745
0.0070;9.73766;164.83901;9.73766
0.0071;9.75056;168.13949;9.75056
0.0072;9.76832;172.88626;9.76832
0.0073;9.78549;174.36963;9.78549
0.0076;9.79723;174.36963;9.79723
0.0078;9.80822;178.30055;9.80822
0.0079;9.82018;181.52687;9.82018
0.0080;9.83226;187.53450;9.83226
0.0082;9.84714;195.21092;9.84714
0.0084;9.85768;200.73645;9.85768
0.0085;9.87380;205.26072;9.87380
0.0087;9.88401;211.63919;9.88401
0.0088;9.89484;213.79007;9.89484
0.0090;9.90726;215.34761;9.90726
0.0092;9.91818;214.93968;9.91818
0.0094;9.93093;214.64301;9.93093
0.0095;9.94526;216.20054;9.94526
0.0096;9.95687;217.86933;9.95687
0.0097;9.96807;219.50103;9.96807
0.0099;9.98336;223.58029;9.98336
0.0101;9.99343;237.67226;9.99343
0.0102;10.00655;246.68371;10.00655
0.0104;10.01762;258.77314;10.01762
0.0106;10.03574;259.66315;10.03574
0.0107;10.05263;256.17725;10.05263
0.0108;10.06558;252.17216;10.06558
0.0110;10.07595;250.80004;10.07595
0.0111;10.08785;253.32177;10.08785
0.0114;10.10018;257.54936;10.10018
0.0115;10.11263;258.14270;10.11263
0.0117;10.12812;260.29358;10.12812
0.0118;10.14413;265.55953;10.14413
0.0119;10.15799;270.52881;10.15799
0.0120;10.16854;279.05816;10.16854
0.0121;10.17951;285.06579;10.17951
0.0122;10.19224;291.62968;10.19224
0.0124;10.20614;303.60786;10.20614
0.0127;10.21860;311.58095;10.21860
0.0128;10.23055;311.98888;10.23055
0.0129;10.24519;311.06177;10.24519
0.0130;10.25931;307.76129;10.25931
0.0132;10.27411;303.94162;10.27411
0.0133;10.28445;302.97743;10.28445
0.0135;10.29819;308.54005;10.29819
0.0137;10.31003;322.29827;10.31003
0.0139;10.32255;328.86216;10.32255
0.0140;10.33735;332.71891;10.33735
0.0141;10.34865;333.60893;10.34865
0.0143;10.36124;337.16901;10.36124
0.0144;10.37307;339.95032;10.37307
0.0145;10.38307;342.13828;10.38307
0.0147;10.39774;347.18173;10.39774
0.0150;10.40812;356.41568;10.40812
0.0151;10.42204;363.16499;10.42204
0.0152;10.43301;365.94630;10.43301
0.0154;10.44746;383.70961;10.44746
0.0156;10.46051;397.20823;10.46051
0.0157;10.47226;412.85774;10.47226
0.0158;10.48473;429.84228;10.48473
0.0159;10.49511;441.67212;10.49511
0.0160;10.50627;453.53904;10.50627
0.0162;10.52070;471.04276;10.52070
0.0164;10.53293;492.81115;10.53293
0.0166;10.54630;517.76877;10.54630
0.0167;10.55837;527.52190;10.55837
0.0168;10.57273;542.05889;10.57273
0.0170;10.58296;556.59587;10.58296
0.0172;10.59584;576.62131;10.59584
0.0173;10.60802;592.53040;10.60802
0.0175;10.62419;614.70672;10.62419
0.0177;10.63811;636.88304;10.63811
0.0179;10.64927;657.68724;10.64927
0.0181;10.66315;675.78430;10.66315
0.0182;10.67676;687.53997;10.67676
0.0185;10.68925;707.08331;10.68925
0.0187;10.70073;716.35435;10.70073
0.0188;10.71340;722.65865;10.71340
0.0190;10.72814;739.86569;10.72814
0.0191;10.74046;743.64828;10.74046
0.0192;10.75634;755.29270;10.75634
0.0194;10.77239;770.97929;10.77239
0.0196;10.78479;790.52263;10.78479
0.0199;10.79638;808.36010;10.79638
0.0200;10.80643;817.96490;10.80643
0.0202;10.82094;826.67967;10.82094
0.0202;10.83227;829.34973;10.83227
0.0204;10.84556;836.35863;10.84556
0.0205;10.85870;844.62839;10.85870
0.0207;10.87249;850.96978;10.87249
0.0208;10.88255;855.41988;10.88255
0.0211;10.89299;873.62819;10.89299
0.0213;10.90342;882.93631;10.90342
0.0214;10.91645;895.17408;10.91645
0.0216;10.93431;920.05754;10.93431
0.0217;10.95464;974.68247;10.95464
0.0219;10.96488;1119.86689;10.96488
0.0220;10.97600;1288.41431;10.97600
0.0223;10.98817;1653.50767;10.98817
0.0224;11.00189;1895.22210;11.00189
0.0226;11.01426;2134.56315;11.01426
0.0228;11.02471;2573.30562;11.02471
0.0231;11.03575;2888.74332;11.03575
0.0232;11.04632;3061.51833;11.04632
0.0235;11.05773;3340.05732;11.05773
0.0237;11.07216;3618.63338;11.07216
0.0239;11.08311;3839.09860;11.08311
0.0241;11.09533;4109.10823;11.09533
0.0246;11.10622;4599.24932;11.10622
0.0250;11.11755;5121.57944;11.11755
0.0252;11.12803;5438.46343;11.12803
0.0254;11.14186;5638.86613;11.14186
0.0255;11.15605;5845.23937;11.15605
0.0258;11.16741;6269.92695;11.16741
0.0260;11.18051;6556.77278;11.18051
0.0263;11.19070;6908.84961;11.19070
0.0264;11.20365;7044.46632;11.20365
0.0265;11.21519;7239.45473;11.21519
0.0267;11.22828;7480.46456;11.22828
0.0268;11.24076;7644.96981;11.24076
0.0270;11.25294;7793.75138;11.25294
0.0271;11.26471;7924.36173;11.26471
0.0273;11.27604;8066.06023;11.27604
0.0275;11.28989;8146.82949;11.28989
0.0276;11.29990;8206.20120;11.29990
0.0277;11.31230;8245.65872;11.31230
0.0279;11.32357;8266.72252;11.32357
0.0280;11.32514;8271.20970;11.32514
0.0281;11.33579;8264.64581;11.33579
0.0282;11.34957;8252.29679;11.34957
0.0284;11.36159;8223.03740;11.36159
0.0286;11.37406;8164.88947;11.37406
0.0289;11.38575;7974.16573;11.38575
0.0290;11.39655;7908.23013;11.39655
0.0292;11.41183;7750.21460;11.41183
0.0293;11.42420;7654.72294;11.42420
0.0294;11.43524;7535.68285;11.43524
0.0295;11.45054;7360.60862;11.45054
0.0296;11.46437;7093.12071;11.46437
0.0297;11.48013;6711.71032;11.48013
0.0299;11.49383;5942.17731;11.49383
0.0300;11.50739;5000.64806;11.50739
0.0301;11.51997;4314.59145;11.51997
0.0301;11.53261;3967.92891;11.53261
0.0302;11.54866;3296.92846;11.54866
0.0303;11.55958;2984.27207;11.55958
0.0304;11.57197;2433.16465;11.57197
0.0305;11.58620;1830.25069;11.58620
0.0307;11.60553;1470.05243;11.60553
0.0308;11.61925;1328.13142;11.61925
0.0309;11.63806;1244.46960;11.63806
0.0310;11.65610;1201.93409;11.65610
0.0311;11.66750;1179.79486;11.66750
0.0313;11.68434;1119.53313;11.68434
0.0313;11.69672;1107.44370;11.69672
0.0314;11.71050;1097.98724;11.71050
0.0315;11.72758;1088.86454;11.72758
0.0316;11.74045;1091.68294;11.74045
0.0317;11.75190;1094.42717;11.75190
0.0319;11.76200;1091.94253;11.76200
0.0320;11.77205;1085.19321;11.77205
0.0321;11.78915;1073.51171;11.78915
0.0322;11.80226;1049.40702;11.80226
0.0323;11.81454;1035.50047;11.81454
0.0324;11.82669;1028.63990;11.82669
0.0326;11.83977;1031.60663;11.83977
0.0329;11.85063;1010.50575;11.85063
0.0334;11.86292;1039.20888;11.86292
0.0336;11.87363;1069.35829;11.87363
0.0337;11.88399;1089.79165;11.88399
0.0342;11.89739;1171.00592;11.89739
0.0346;11.91026;1215.91481;11.91026
0.0348;11.92071;1264.08711;11.92071
0.0351;11.93429;1314.18778;11.93429
0.0354;11.94616;1339.44208;11.94616
0.0355;11.95718;1350.41899;11.95718
0.0357;11.96882;1365.73474;11.96882
0.0358;11.98246;1376.67456;11.98246
0.0359;11.99254;1384.64765;11.99254
0.0359;12.00083;1386.42769;12.00083
